# Wavelength (nm)	Smoothed Intensity
299.383362	10.994554
299.552002	11.175199
299.720612	11.347240
299.889191	11.479308
300.057800	11.653391
300.226379	11.825028
300.394958	12.010195
300.563538	12.168380
300.732117	12.343013
300.900696	12.520681
301.069244	12.695375
301.237793	12.871547
301.406342	13.060817
301.574890	13.239879
301.743408	13.430384
301.911957	13.612014
302.080475	13.802277
302.248993	14.002532
302.417480	14.186259
302.585999	14.376947
302.754486	14.578090
302.922974	14.754238
303.091461	14.947547
303.259949	15.142067
303.428436	15.339717
303.596893	15.512878
303.765350	15.705647
303.933807	15.901078
304.102264	16.089360
304.270691	16.282341
304.439117	16.468622
304.607574	16.653887
304.776001	16.816700
304.944397	17.017485
305.112823	17.177016
305.281219	17.355398
305.449615	17.537830
305.618011	17.713882
305.786407	17.899648
305.954773	18.075511
306.123169	18.259274
306.291534	18.450410
306.459900	18.628590
306.628235	18.817300
306.796600	18.997721
306.964935	19.186671
307.133270	19.365401
307.301605	19.545354
307.469940	19.731362
307.638245	19.900513
307.806580	20.081311
307.974884	20.261016
308.143188	20.439975
308.311462	20.626904
308.479767	20.811004
308.648041	21.011188
308.816315	21.184114
308.984589	21.355736
309.152863	21.536812
309.321106	21.701064
309.489380	21.864744
309.657623	22.030375
309.825867	22.210054
309.994080	22.372059
310.162323	22.540352
310.330536	22.703608
310.498749	22.877021
310.666962	23.037416
310.835175	23.188923
311.003357	23.355333
311.171539	23.516820
311.339752	23.686513
311.507904	23.865229
311.676086	24.016393
311.844238	24.179659
312.012421	24.317391
312.180573	24.469361
312.348724	24.622211
312.516846	24.762930
312.684998	24.930924
312.853119	25.086397
313.021240	25.225217
313.189362	25.356947
313.357452	25.509619
313.525574	25.666142
313.693665	25.819319
313.861755	25.950183
314.029846	26.093491
314.197937	26.249483
314.365997	26.374806
314.534058	26.528784
314.702118	26.663178
314.870178	26.800011
315.038239	26.921343
315.206268	27.041197
315.374298	27.176929
315.542328	27.334321
315.710358	27.450448
315.878357	27.614412
316.046387	27.744792
316.214386	27.891757
316.382385	28.036722
316.550385	28.168213
316.718353	28.283151
316.886353	28.396310
317.054321	28.520166
317.222290	28.632436
317.390259	28.790256
317.558197	28.917917
317.726135	29.060014
317.894104	29.163679
318.062012	29.269563
318.229950	29.389134
318.397888	29.519634
318.565796	29.638460
318.733704	29.767094
318.901611	29.858269
319.069519	29.998846
319.237396	30.087192
319.405304	30.194786
319.573181	30.298291
319.741058	30.406986
319.908905	30.509851
320.076782	30.630850
320.244629	30.745577
320.412476	30.842556
320.580322	30.970639
320.748169	31.041008
320.915985	31.144115
321.083801	31.241027
321.251617	31.352858
321.419434	31.458869
321.587250	31.553403
321.755035	31.671013
321.922821	31.793380
322.090607	31.882304
322.258392	31.984099
322.426178	32.084335
322.593933	32.189844
322.761719	32.280025
322.929474	32.352715
323.097198	32.445671
323.264954	32.554038
323.432678	32.642903
323.600403	32.746376
323.768127	32.848216
323.935852	32.936940
324.103577	33.044860
324.271271	33.123255
324.438965	33.213384
324.606659	33.292046
324.774353	33.380925
324.942047	33.451484
325.109711	33.514735
325.277374	33.590371
325.445038	33.673907
325.612701	33.751824
325.780334	33.796388
325.947968	33.857054
326.115631	33.915794
326.283234	34.020704
326.450867	34.100087
326.618500	34.187304
326.786102	34.263742
326.953705	34.303393
327.121307	34.377744
327.288879	34.447281
327.456482	34.524433
327.624054	34.597374
327.791626	34.656440
327.959198	34.718941
328.126770	34.799939
328.294312	34.868268
328.461853	34.954517
328.629395	35.020483
328.796936	35.081152
328.964478	35.161489
329.131989	35.257084
329.299500	35.338202
329.467010	35.421718
329.634521	35.473106
329.802002	35.539050
329.969513	35.600564
330.136993	35.683236
330.304474	35.758406
330.471954	35.809915
330.639404	35.880812
330.806854	35.927414
330.974335	36.003619
331.141754	36.078426
331.309204	36.171065
331.476654	36.227226
331.644073	36.311408
331.811493	36.341555
331.978912	36.399147
332.146332	36.462986
332.313721	36.515521
332.481110	36.575049
332.648499	36.631656
332.815887	36.665136
332.983276	36.714633
333.150635	36.753312
333.317993	36.804958
333.485352	36.858735
333.652710	36.923143
333.820068	36.975690
333.987396	37.023791
334.154724	37.062061
334.322052	37.101450
334.489380	37.133883
334.656708	37.175350
334.824005	37.207381
334.991302	37.221930
335.158600	37.276657
335.325897	37.337514
335.493164	37.386999
335.660431	37.426831
335.827728	37.481270
335.994965	37.526316
336.162231	37.593658
336.329498	37.644947
336.496735	37.680722
336.663971	37.709540
336.831207	37.738949
336.998413	37.779267
337.165649	37.837781
337.332855	37.874003
337.500061	37.925331
337.667267	37.949774
337.834442	38.008554
338.001648	38.036294
338.168823	38.092611
338.335999	38.156106
338.503174	38.209503
338.670319	38.230143
338.837494	38.267274
339.004639	38.316483
339.171783	38.333660
339.338898	38.365969
339.506042	38.403739
339.673157	38.438412
339.840271	38.492741
340.007385	38.531284
340.174500	38.587144
340.341583	38.639051
340.508667	38.654831
340.675751	38.695674
340.842834	38.733487
341.009918	38.784413
341.176971	38.821147
341.344055	38.866332
341.511108	38.909111
341.678131	38.942138
341.845184	38.971212
342.012207	39.012403
342.179230	39.038325
342.346252	39.060759
342.513275	39.112001
342.680298	39.166708
342.847290	39.205759
343.014282	39.239161
343.181274	39.275482
343.348267	39.316953
343.515228	39.342863
343.682190	39.372278
343.849152	39.418042
344.016113	39.447978
344.183075	39.488252
344.350006	39.524979
344.516968	39.562955
344.683899	39.608478
344.850800	39.637292
345.017731	39.668959
345.184631	39.707573
345.351532	39.738702
345.518433	39.767420
345.685333	39.802942
345.852234	39.816242
346.019104	39.842463
346.185974	39.863988
346.352844	39.899887
346.519714	39.919012
346.686554	39.952464
346.853424	39.989636
347.020264	40.004592
347.187073	40.043005
347.353912	40.073082
347.520721	40.095437
347.687561	40.144090
347.854370	40.149625
348.021179	40.143289
348.187958	40.178399
348.354736	40.204482
348.521545	40.235560
348.688324	40.272811
348.855072	40.312034
349.021851	40.327389
349.188599	40.364367
349.355347	40.391315
349.522095	40.428874
349.688843	40.456548
349.855560	40.497487
350.022308	40.525680
350.189026	40.539478
350.355743	40.559998
350.522430	40.566571
350.689148	40.617563
350.855835	40.640768
351.022522	40.650694
351.189209	40.688879
351.355865	40.731345
351.522522	40.753256
351.689209	40.778130
351.855865	40.795902
352.022491	40.814630
352.189148	40.832724
352.355774	40.880741
352.522400	40.913717
352.689026	40.935756
352.855652	40.932490
353.022247	40.958889
353.188843	40.968694
353.355438	40.990100
353.522034	41.016164
353.688629	41.050061
353.855194	41.095667
354.021759	41.103173
354.188324	41.124827
354.354889	41.145323
354.521454	41.165498
354.687988	41.169485
354.854523	41.197811
355.021057	41.233697
355.187592	41.259063
355.354095	41.286126
355.520599	41.310876
355.687134	41.303341
355.853607	41.309227
356.020111	41.331657
356.186584	41.383723
356.353088	41.392760
356.519562	41.420006
356.686005	41.444088
356.852478	41.449043
357.018921	41.465958
357.185364	41.481580
357.351807	41.494883
357.518250	41.524624
357.684692	41.531995
357.851105	41.566558
358.017517	41.611519
358.183929	41.600910
358.350311	41.612728
358.516724	41.626086
358.683105	41.634617
358.849487	41.664079
359.015869	41.714590
359.182220	41.746572
359.348602	41.769965
359.514954	41.785618
359.681305	41.823989
359.847656	41.845023
360.013977	41.857229
360.180298	41.876203
360.346649	41.877944
360.512939	41.866849
360.679260	41.900455
360.845581	41.905755
361.011871	41.924493
361.178162	41.936879
361.344452	41.946892
361.510712	41.982560
361.677002	41.999334
361.843262	42.025040
362.009521	42.058548
362.175751	42.068191
362.342010	42.084049
362.508240	42.091887
362.674469	42.090797
362.840698	42.107680
363.006927	42.118123
363.173126	42.145855
363.339325	42.167169
363.505524	42.198320
363.671722	42.228768
363.837921	42.274276
364.004089	42.286391
364.170258	42.315989
364.336426	42.356140
364.502594	42.372722
364.668762	42.399228
364.834900	42.407975
365.001038	42.429860
365.167175	42.449349
365.333282	42.461049
365.499420	42.489735
365.665527	42.499375
365.831635	42.507836
365.997742	42.538259
366.163818	42.557158
366.329926	42.563890
366.496002	42.569610
366.662079	42.589546
366.828156	42.610900
366.994202	42.629304
367.160248	42.634434
367.326294	42.633932
367.492340	42.642003
367.658386	42.645676
367.824402	42.648816
367.990448	42.659330
368.156464	42.681087
368.322449	42.698228
368.488464	42.689777
368.654449	42.697692
368.820435	42.694049
368.986420	42.705755
369.152405	42.743768
369.318390	42.769038
369.484344	42.764471
369.650299	42.792481
369.816254	42.822272
369.982178	42.831165
370.148132	42.838957
370.314056	42.859086
370.479980	42.884781
370.645905	42.906279
370.811798	42.932427
370.977692	42.947250
371.143616	42.958946
371.309479	42.969773
371.475372	43.005593
371.641266	43.020777
371.807129	43.060743
371.972992	43.091016
372.138855	43.126242
372.304688	43.131766
372.470551	43.132963
372.636383	43.116772
372.802216	43.139292
372.968018	43.126940
373.133850	43.125186
373.299652	43.135370
373.465454	43.143563
373.631256	43.155588
373.797058	43.150073
373.962830	43.162913
374.128601	43.163857
374.294373	43.182747
374.460144	43.199042
374.625916	43.203670
374.791656	43.176001
374.957397	43.174889
375.123138	43.172254
375.288879	43.149417
375.454590	43.158917
375.620331	43.167198
375.786041	43.184685
375.951721	43.204090
376.117432	43.218618
376.283112	43.247254
376.448822	43.272336
376.614471	43.280133
376.780151	43.281751
376.945831	43.293651
377.111481	43.308533
377.277130	43.325081
377.442780	43.336176
377.608429	43.340092
377.774048	43.352517
377.939667	43.362701
378.105286	43.396689
378.270905	43.425813
378.436523	43.437910
378.602112	43.458625
378.767700	43.443102
378.933289	43.470728
379.098877	43.459663
379.264435	43.469995
379.429993	43.487220
379.595551	43.522286
379.761108	43.502071
379.926666	43.504078
380.092194	43.519290
380.257721	43.514900
380.423248	43.525331
380.588776	43.527690
380.754272	43.548233
380.919800	43.556009
381.085297	43.566534
381.250793	43.572618
381.416260	43.562059
381.581757	43.573848
381.747223	43.607198
381.912689	43.628171
382.078125	43.641655
382.243591	43.644620
382.409027	43.666424
382.574463	43.678227
382.739899	43.671295
382.905334	43.635977
383.070740	43.670131
383.236176	43.687716
383.401581	43.704046
383.566956	43.716643
383.732361	43.726252
383.897736	43.744820
384.063110	43.759895
384.228485	43.771358
384.393860	43.795859
384.559204	43.833210
384.724579	43.858367
384.889923	43.863065
385.055237	43.855751
385.220581	43.864285
385.385895	43.889961
385.551239	43.900092
385.716522	43.921521
385.881836	43.946797
386.047150	43.977539
386.212433	44.022192
386.377716	44.034756
386.542999	44.042012
386.708252	44.060165
386.873535	44.077352
387.038788	44.128977
387.204041	44.134037
387.369293	44.135203
387.534515	44.143738
387.699738	44.146292
387.864960	44.157932
388.030182	44.177393
388.195404	44.181458
388.360596	44.204838
388.525787	44.228852
388.690979	44.238385
388.856171	44.243097
389.021362	44.255540
389.186523	44.256504
389.351685	44.270998
389.516846	44.272867
389.682007	44.288708
389.847137	44.308677
390.012268	44.332990
390.177399	44.358531
390.342529	44.349398
390.507629	44.346025
390.672760	44.344503
390.837860	44.325526
391.002960	44.343314
391.168030	44.333262
391.333130	44.338131
391.498199	44.341878
391.663269	44.350554
391.828339	44.351912
391.993378	44.369246
392.158447	44.385991
392.323486	44.403713
392.488525	44.401396
392.653534	44.402279
392.818573	44.414713
392.983582	44.429695
393.148590	44.455485
393.313599	44.435194
393.478577	44.450149
393.643585	44.444174
393.808563	44.486707
393.973541	44.500838
394.138489	44.540789
394.303467	44.544966
394.468414	44.546295
394.633362	44.542471
394.798309	44.565454
394.963226	44.574285
395.128174	44.570202
395.293091	44.578610
395.458008	44.594892
395.622894	44.581367
395.787811	44.608754
395.952698	44.629378
396.117584	44.650801
396.282471	44.654851
396.447327	44.671156
396.612213	44.680151
396.777069	44.695018
396.941925	44.708998
397.106750	44.723234
397.271606	44.741070
397.436432	44.757505
397.601257	44.776034
397.766083	44.804860
397.930878	44.842545
398.095703	44.849519
398.260498	44.852208
398.425293	44.879718
398.590057	44.890896
398.754852	44.901161
398.919617	44.916686
399.084381	44.931775
399.249146	44.938222
399.413879	44.939965
399.578644	44.957056
399.743378	44.957305
399.908112	44.999915
400.072815	44.981945
400.237549	45.010937
400.402252	45.005344
400.566956	45.012527
400.731659	45.004305
400.896332	45.025315
401.061035	45.049033
401.225708	45.044045
401.390381	45.070876
401.555023	45.094707
401.719696	45.118802
401.884338	45.135439
402.048981	45.157328
402.213623	45.188607
402.378235	45.186481
402.542847	45.211706
402.707489	45.223359
402.872070	45.241662
403.036682	45.242892
403.201294	45.249204
403.365875	45.277347
403.530457	45.248131
403.695007	45.248089
403.859589	45.280877
404.024139	45.318153
404.188690	45.295116
404.353241	45.282722
404.517792	45.304844
404.682312	45.283147
404.846832	45.301231
405.011353	45.289407
405.175873	45.289544
405.340393	45.293671
405.504883	45.279818
405.669373	45.319396
405.833862	45.308661
405.998322	45.312216
406.162811	45.312145
406.327271	45.339183
406.491730	45.312220
406.656189	45.317996
406.820618	45.355090
406.985046	45.367525
407.149475	45.358489
407.313904	45.345268
407.478333	45.393131
407.642731	45.415305
407.807129	45.422063
407.971527	45.446958
408.135925	45.425916
408.300293	45.444421
408.464661	45.452297
408.629028	45.470481
408.793396	45.466433
408.957764	45.456199
409.122101	45.480069
409.286438	45.507699
409.450775	45.516621
409.615112	45.507566
409.779419	45.537959
409.943726	45.546261
410.108032	45.555688
410.272339	45.575145
410.436646	45.587223
410.600922	45.621031
410.765198	45.620784
410.929474	45.615675
411.093750	45.634730
411.257996	45.646129
411.422241	45.657556
411.586487	45.639879
411.750732	45.649502
411.914948	45.643946
412.079193	45.668966
412.243408	45.695979
412.407623	45.692533
412.571808	45.657380
412.735992	45.657281
412.900208	45.667502
413.064392	45.678666
413.228546	45.679492
413.392731	45.704823
413.556885	45.733982
413.721039	45.749579
413.885193	45.761306
414.049316	45.753554
414.213470	45.796125
414.377594	45.793326
414.541718	45.812270
414.705811	45.817946
414.869934	45.858546
415.034027	45.867509
415.198120	45.880810
415.362213	45.933198
415.526276	45.933726
415.690338	45.962142
415.854431	46.011042
416.018463	46.030056
416.182526	46.049062
416.346558	46.072744
416.510620	46.096803
416.674622	46.093702
416.838654	46.082635
417.002686	46.094643
417.166687	46.115025
417.330688	46.128705
417.494690	46.112739
417.658661	46.096341
417.822662	46.105447
417.986633	46.130828
418.150604	46.134578
418.314545	46.133069
418.478516	46.140478
418.642456	46.094789
418.806396	46.112355
418.970337	46.092104
419.134247	46.097604
419.298187	46.091935
419.462097	46.097707
419.625977	46.108428
419.789886	46.117711
419.953766	46.154220
420.117676	46.191791
420.281555	46.206785
420.445404	46.197837
420.609283	46.224234
420.773132	46.248448
420.936981	46.292059
421.100830	46.307355
421.264648	46.320563
421.428497	46.325346
421.592316	46.356411
421.756134	46.354519
421.919922	46.395148
422.083740	46.396374
422.247528	46.421914
422.411316	46.421992
422.575104	46.426203
422.738861	46.417493
422.902618	46.452747
423.066406	46.472471
423.230133	46.455864
423.393890	46.449404
423.557617	46.453904
423.721344	46.473058
423.885071	46.490258
424.048798	46.491047
424.212524	46.480850
424.376221	46.457980
424.539917	46.457742
424.703583	46.474627
424.867279	46.464946
425.030945	46.489804
425.194611	46.513522
425.358276	46.507391
425.521942	46.541397
425.685577	46.564598
425.849213	46.584620
426.012848	46.619374
426.176483	46.612014
426.340118	46.628224
426.503723	46.648855
426.667328	46.659708
426.830933	46.688458
426.994507	46.693275
427.158112	46.660437
427.321686	46.684297
427.485229	46.693930
427.648804	46.712449
427.812378	46.733920
427.975922	46.740769
428.139465	46.768780
428.302979	46.781649
428.466522	46.763798
428.630035	46.781899
428.793549	46.767382
428.957062	46.737418
429.120575	46.732357
429.284058	46.745527
429.447540	46.735707
429.611023	46.730493
429.774506	46.719075
429.937958	46.721636
430.101410	46.719866
430.264862	46.707675
430.428314	46.744735
430.591736	46.747444
430.755188	46.760860
430.918610	46.794740
431.082031	46.802418
431.245422	46.815741
431.408813	46.840908
431.572235	46.848271
431.735596	46.870198
431.898987	46.879205
432.062378	46.895666
432.225739	46.935339
432.389099	46.985034
432.552429	46.971978
432.715790	46.991299
432.879120	46.987768
433.042450	47.002588
433.205780	47.020169
433.369110	47.003045
433.532410	47.027502
433.695709	47.038392
433.859009	47.041976
434.022308	47.052356
434.185577	47.065086
434.348846	47.083772
434.512115	47.091029
434.675385	47.080856
434.838654	47.098263
435.001892	47.106263
435.165131	47.113788
435.328369	47.113651
435.491577	47.117890
435.654816	47.091331
435.818024	47.110704
435.981232	47.131583
436.144409	47.156222
436.307617	47.171691
436.470795	47.162402
436.633972	47.196456
436.797119	47.218233
436.960297	47.208007
437.123444	47.209652
437.286591	47.246942
437.449738	47.226923
437.612885	47.234887
437.776001	47.243862
437.939117	47.263300
438.102234	47.262425
438.265350	47.273396
438.428436	47.291268
438.591522	47.283150
438.754608	47.284986
438.917694	47.294020
439.080750	47.300555
439.243835	47.270198
439.406891	47.281224
439.569916	47.298803
439.732971	47.316498
439.895996	47.302382
440.059021	47.297807
440.222046	47.319663
440.385071	47.340253
440.548065	47.331466
440.711060	47.346297
440.874054	47.356372
441.037048	47.361533
441.200012	47.368627
441.363007	47.393633
441.525970	47.396110
441.688904	47.401154
441.851868	47.432652
442.014801	47.459592
442.177734	47.492577
442.340668	47.500692
442.503601	47.534717
442.666504	47.534323
442.829407	47.537765
442.992310	47.543855
443.155212	47.585996
443.318085	47.593798
443.480957	47.593888
443.643829	47.585676
443.806702	47.599232
443.969543	47.613579
444.132416	47.617527
444.295258	47.647805
444.458069	47.654383
444.620911	47.644336
444.783722	47.642747
444.946533	47.672722
445.109344	47.673645
445.272156	47.672396
445.434937	47.659640
445.597717	47.673117
445.760498	47.687228
445.923279	47.714034
446.086060	47.689287
446.248810	47.684744
446.411560	47.689747
446.574280	47.696748
446.737030	47.713600
446.899750	47.748449
447.062469	47.753993
447.225189	47.766444
447.387909	47.751151
447.550598	47.752055
447.713287	47.767309
447.875977	47.780413
448.038666	47.802209
448.201324	47.800208
448.363983	47.788564
448.526642	47.810272
448.689301	47.834211
448.851929	47.841689
449.014587	47.830970
449.177216	47.832732
449.339813	47.850233
449.502441	47.875582
449.665039	47.870974
449.827637	47.872752
449.990234	47.883340
450.152832	47.886112
450.315399	47.885943
450.477966	47.907979
450.640533	47.939410
450.803101	47.965677
450.965637	47.950738
451.128174	47.956581
451.290710	47.946207
451.453247	47.949552
451.615784	47.976730
451.778290	47.980204
451.940796	47.989214
452.103302	48.016394
452.265778	48.047469
452.428253	48.048477
452.590729	48.061500
452.753204	48.066634
452.915680	48.051366
453.078125	48.059533
453.240570	48.080915
453.403015	48.079289
453.565460	48.111558
453.727875	48.078045
453.890289	48.083069
454.052704	48.063249
454.215118	48.085821
454.377533	48.084835
454.539917	48.129846
454.702301	48.124245
454.864685	48.163272
455.027039	48.160310
455.189392	48.161126
455.351746	48.177034
455.514099	48.186507
455.676453	48.187563
455.838776	48.220660
456.001099	48.255823
456.163422	48.277606
456.325745	48.284135
456.488037	48.274998
456.650330	48.286100
456.812622	48.263138
456.974915	48.310706
457.137177	48.327080
457.299469	48.340240
457.461731	48.345389
457.623962	48.364777
457.786224	48.380796
457.948456	48.394603
458.110687	48.368168
458.272919	48.370717
458.435150	48.388297
458.597351	48.403327
458.759552	48.419194
458.921753	48.467282
459.083923	48.467832
459.246124	48.437210
459.408295	48.449738
459.570465	48.476489
459.732635	48.477261
459.894775	48.506233
460.056915	48.542715
460.219055	48.528979
460.381195	48.549279
460.543304	48.526042
460.705444	48.545555
460.867554	48.562377
461.029633	48.525253
461.191742	48.536034
461.353821	48.557133
461.515900	48.585365
461.677979	48.591096
461.840057	48.565299
462.002106	48.567837
462.164154	48.548910
462.326202	48.539314
462.488251	48.567722
462.650269	48.589379
462.812286	48.598361
462.974304	48.637560
463.136322	48.608867
463.298309	48.602059
463.460297	48.611922
463.622284	48.596421
463.784271	48.638966
463.946259	48.626219
464.108215	48.625730
464.270172	48.665370
464.432129	48.660103
464.594055	48.654941
464.755981	48.640765
464.917908	48.673185
465.079834	48.684014
465.241760	48.660307
465.403656	48.667796
465.565552	48.690025
465.727448	48.702366
465.889343	48.671868
466.051208	48.669667
466.213074	48.649990
466.374939	48.685115
466.536804	48.703917
466.698639	48.693803
466.860504	48.696608
467.022308	48.706155
467.184143	48.709665
467.345978	48.716162
467.507782	48.714602
467.669586	48.742376
467.831390	48.752638
467.993164	48.763908
468.154938	48.735874
468.316711	48.727976
468.478485	48.765409
468.640259	48.758713
468.802002	48.761614
468.963745	48.766945
469.125488	48.807938
469.287231	48.811597
469.448944	48.802370
469.610657	48.762165
469.772369	48.731635
469.934082	48.769392
470.095764	48.770299
470.257446	48.757235
470.419128	48.802516
470.580811	48.795964
470.742462	48.801586
470.904144	48.791906
471.065796	48.811309
471.227417	48.841637
471.389069	48.862932
471.550690	48.914475
471.712311	48.957800
471.873932	48.951851
472.035522	48.961349
472.197144	48.966667
472.358734	48.962318
472.520294	48.979668
472.681885	49.002095
472.843445	49.025182
473.005005	49.067482
473.166565	49.061514
473.328125	49.073119
473.489655	49.085361
473.651184	49.071746
473.812714	49.109450
473.974243	49.129961
474.135742	49.175279
474.297241	49.149496
474.458740	49.131558
474.620239	49.117600
474.781738	49.081200
474.943207	49.039495
475.104675	49.068846
475.266113	49.072081
475.427582	49.076271
475.589020	49.057702
475.750458	49.057825
475.911896	49.074318
476.073303	49.104409
476.234741	49.109684
476.396149	49.137280
476.557526	49.155405
476.718933	49.165536
476.880310	49.190086
477.041687	49.179211
477.203064	49.167550
477.364441	49.139845
477.525787	49.163971
477.687134	49.186477
477.848480	49.204242
478.009827	49.203467
478.171143	49.225300
478.332458	49.230598
478.493774	49.242817
478.655090	49.220915
478.816376	49.256126
478.977661	49.273927
479.138947	49.281192
479.300232	49.269669
479.461487	49.283087
479.622772	49.253327
479.784027	49.261851
479.945251	49.297451
480.106506	49.263290
480.267731	49.290727
480.428955	49.274184
480.590179	49.290783
480.751373	49.331073
480.912567	49.339348
481.073761	49.368488
481.234955	49.380397
481.396149	49.378965
481.557312	49.365026
481.718475	49.370892
481.879639	49.402623
482.040802	49.422977
482.201935	49.431929
482.363068	49.426968
482.524200	49.442368
482.685303	49.434159
482.846436	49.461205
483.007538	49.461571
483.168640	49.455027
483.329712	49.471728
483.490814	49.466848
483.651886	49.494126
483.812958	49.480459
483.973999	49.470196
484.135071	49.469993
484.296112	49.456850
484.457153	49.487322
484.618195	49.491590
484.779205	49.507623
484.940216	49.517205
485.101227	49.528260
485.262238	49.534008
485.423218	49.531535
485.584229	49.573933
485.745209	49.588759
485.906158	49.613239
486.067139	49.624993
486.228088	49.622162
486.389038	49.625828
486.549988	49.668470
486.710907	49.664767
486.871857	49.673540
487.032776	49.693287
487.193665	49.682309
487.354584	49.690508
487.515472	49.707439
487.676361	49.725625
487.837250	49.723470
487.998138	49.721489
488.158997	49.731185
488.319855	49.721665
488.480713	49.723548
488.641541	49.732111
488.802399	49.719498
488.963226	49.754458
489.124054	49.757727
489.284851	49.762883
489.445679	49.764877
489.606476	49.753347
489.767273	49.730315
489.928040	49.753573
490.088837	49.763797
490.249603	49.788805
490.410370	49.818623
490.571106	49.831615
490.731873	49.823728
490.892609	49.835437
491.053345	49.850048
491.214081	49.874831
491.374786	49.902017
491.535492	49.923716
491.696198	49.908266
491.856903	49.893165
492.017578	49.893121
492.178284	49.872159
492.338959	49.855206
492.499603	49.837096
492.660278	49.846739
492.820923	49.876914
492.981567	49.888041
493.142212	49.867175
493.302826	49.855899
493.463440	49.858522
493.624054	49.839744
493.784668	49.849772
493.945282	49.857775
494.105865	49.846758
494.266449	49.858738
494.427032	49.853534
494.587585	49.834117
494.748169	49.846392
494.908722	49.892005
495.069244	49.926950
495.229797	49.941168
495.390320	49.944233
495.550842	49.969949
495.711365	49.984619
495.871887	50.013756
496.032379	50.006560
496.192871	50.018906
496.353363	50.057499
496.513855	50.066839
496.674316	50.073672
496.834778	50.099204
496.995239	50.100752
497.155670	50.137374
497.316132	50.126512
497.476562	50.123246
497.636993	50.123686
497.797394	50.150407
497.957825	50.161642
498.118225	50.126323
498.278625	50.131794
498.438995	50.125147
498.599396	50.109165
498.759766	50.104103
498.920135	50.129384
499.080475	50.105803
499.240845	50.143945
499.401184	50.136909
499.561523	50.152011
499.721832	50.192368
499.882172	50.173187
500.042480	50.185042
500.202789	50.183345
500.363098	50.143270
500.523376	50.171095
500.683655	50.179733
500.843933	50.195306
501.004211	50.186294
501.164459	50.178154
501.324707	50.182823
501.484955	50.171222
501.645203	50.175889
501.805420	50.217573
501.965668	50.220360
502.125885	50.226998
502.286072	50.253525
502.446289	50.244200
502.606476	50.250637
502.766663	50.218834
502.926849	50.215527
503.087006	50.197376
503.247162	50.193492
503.407318	50.201938
503.567474	50.201318
503.727600	50.194429
503.887756	50.193693
504.047882	50.228450
504.207977	50.231242
504.368103	50.224226
504.528198	50.259144
504.688293	50.272957
504.848389	50.295448
505.008453	50.291145
505.168549	50.290403
505.328613	50.276544
505.488647	50.280943
505.648712	50.255292
505.808746	50.284443
505.968781	50.299288
506.128815	50.308540
506.288818	50.375585
506.448853	50.385210
506.608856	50.378049
506.768829	50.416957
506.928833	50.422223
507.088806	50.434973
507.248779	50.421743
507.408752	50.413425
507.568695	50.460046
507.728668	50.445074
507.888611	50.466752
508.048523	50.451575
508.208466	50.446442
508.368378	50.445103
508.528290	50.468805
508.688202	50.491636
508.848114	50.514002
509.007996	50.499121
509.167877	50.496191
509.327759	50.478411
509.487610	50.465968
509.647461	50.469147
509.807312	50.479358
509.967163	50.492031
510.127014	50.510755
510.286835	50.546329
510.446655	50.557756
510.606476	50.558876
510.766266	50.534540
510.926086	50.536330
511.085876	50.539746
511.245667	50.539989
511.405426	50.569318
511.565186	50.596188
511.724945	50.593385
511.884705	50.577154
512.044434	50.567360
512.204163	50.588708
512.363953	50.580816
512.523621	50.590986
512.683350	50.575158
512.843079	50.573498
513.002747	50.562235
513.162476	50.524040
513.322144	50.517547
513.481812	50.483822
513.641479	50.469236
513.801147	50.496715
513.960815	50.480282
514.120422	50.525859
514.280090	50.518834
514.439697	50.515729
514.599365	50.478269
514.758972	50.470282
514.918579	50.467849
515.078186	50.481724
515.237732	50.477314
515.397339	50.491493
515.556946	50.491747
515.716492	50.521487
515.876038	50.533678
516.035583	50.546170
516.195129	50.617713
516.354675	50.655656
516.514221	50.672875
516.673767	50.709974
516.833252	50.679046
516.992798	50.655335
517.152283	50.703144
517.311768	50.674197
517.471252	50.669065
517.630737	50.692771
517.790222	50.751545
517.949646	50.758831
518.109131	50.780022
518.268555	50.789346
518.427979	50.809012
518.587463	50.825975
518.746887	50.909425
518.906250	50.851225
519.065674	50.895524
519.225098	50.880753
519.384460	50.843784
519.543884	50.829443
519.703247	50.819493
519.862610	50.787474
520.021973	50.850539
520.181335	50.890927
520.340698	50.873156
520.500000	50.915561
520.659363	50.924173
520.818665	50.925894
520.977966	50.895378
521.137329	50.892918
521.296631	50.906237
521.455872	50.917906
521.615173	50.930489
521.774475	50.881297
521.933716	50.856699
522.093018	50.938606
522.252258	50.884247
522.411499	50.907843
522.570740	50.906552
522.729980	50.911651
522.889221	50.946562
523.048401	50.932677
523.207642	50.923988
523.366821	50.898924
523.526001	50.927296
523.685181	50.900062
523.844360	50.904930
524.003540	50.933922
524.162720	51.001942
524.321838	51.052786
524.481018	51.033937
524.640137	51.017762
524.799316	51.023578
524.958435	51.056000
525.117554	51.044571
525.276611	51.017228
525.435730	51.084786
525.594849	51.089553
525.753906	51.084275
525.912964	51.118645
526.072083	51.088102
526.231140	51.158479
526.390198	51.158265
526.549255	51.189150
526.708252	51.150307
526.867310	51.188837
527.026306	51.235699
527.185364	51.243615
527.344360	51.198819
527.503357	51.183210
527.662354	51.191634
527.821350	51.169462
527.980286	51.144161
528.139282	51.167747
528.298218	51.150112
528.457214	51.149762
528.616150	51.117661
528.775085	51.116352
528.934021	51.137564
529.092896	51.147717
529.251831	51.163602
529.410767	51.116180
529.569641	51.172043
529.728516	51.156431
529.887451	51.177664
530.046326	51.135203
530.205200	51.119211
530.364014	51.120979
530.522888	51.118121
530.681702	51.114378
530.840576	51.125477
530.999390	51.181891
531.158203	51.238707
531.317017	51.182351
531.475830	51.188624
531.634644	51.176475
531.793457	51.180152
531.952209	51.200128
532.110962	51.199756
532.269775	51.202252
532.428528	51.166371
532.587280	51.156190
532.746033	51.145429
532.904724	51.175994
533.063477	51.182623
533.222229	51.235519
533.380920	51.235891
533.539612	51.271942
533.698303	51.295355
533.856995	51.299327
534.015686	51.313115
534.174377	51.324285
534.333008	51.272363
534.491699	51.312679
534.650330	51.334014
534.808960	51.385816
534.967651	51.430572
535.126221	51.433937
535.284851	51.422401
535.443481	51.427842
535.602112	51.445440
535.760681	51.508781
535.919250	51.465431
536.077881	51.503844
536.236450	51.510194
536.395020	51.522053
536.553528	51.525431
536.712097	51.470572
536.870667	51.481722
537.029175	51.485467
537.187683	51.475431
537.346191	51.543515
537.504700	51.601052
537.663208	51.633133
537.821716	51.604384
537.980225	51.624541
538.138672	51.584693
538.297180	51.606044
538.455627	51.635022
538.614075	51.653292
538.772522	51.751120
538.930969	51.713707
539.089417	51.698254
539.247803	51.691644
539.406250	51.720257
539.564636	51.681660
539.723083	51.693899
539.881470	51.701067
540.039856	51.684559
540.198242	51.713719
540.356567	51.747856
540.514954	51.656551
540.673279	51.668626
540.831665	51.667949
540.989990	51.667974
541.148315	51.689249
541.306641	51.713334
541.464966	51.726329
541.623291	51.720265
541.781555	51.692291
541.939880	51.659181
542.098145	51.685037
542.256409	51.733755
542.414673	51.719879
542.572937	51.728380
542.731201	51.762983
542.889465	51.747077
543.047668	51.735926
543.205933	51.763675
543.364136	51.762632
543.522339	51.764566
543.680542	51.770413
543.838745	51.779061
543.996948	51.778452
544.155090	51.831607
544.313293	51.803423
544.471436	51.821418
544.629639	51.804609
544.787781	51.836038
544.945923	51.875146
545.104065	51.879908
545.262146	51.881739
545.420288	51.876466
545.578369	51.898296
545.736511	51.886182
545.894592	51.933714
546.052673	51.880939
546.210754	51.890034
546.368835	51.863105
546.526917	51.854397
546.684937	51.870745
546.843018	51.853859
547.001038	51.866742
547.159058	51.850198
547.317078	51.911649
547.475098	51.926213
547.633118	51.927662
547.791138	51.946089
547.949097	51.916839
548.107117	51.883241
548.265076	51.879781
548.423035	51.863930
548.580994	51.926008
548.738953	51.867719
548.896912	51.892910
549.054810	51.852131
549.212769	51.906274
549.370667	51.942500
549.528625	51.989504
549.686523	52.010837
549.844421	51.984361
550.002319	52.030472
550.160156	51.945929
550.318054	51.934716
550.475891	51.889794
550.633789	51.860424
550.791626	51.870912
550.949463	51.882716
551.107300	51.958885
551.265137	52.018321
551.422974	52.016084
551.580750	52.036071
551.738586	52.033619
551.896362	52.075715
552.054138	52.018889
552.211914	52.068869
552.369690	52.093118
552.527466	52.148094
552.685242	52.145351
552.842957	52.136516
553.000671	52.148449
553.158447	52.163467
553.316162	52.216040
553.473877	52.344643
553.631592	52.376316
553.789307	52.424987
553.946960	52.356500
554.104675	52.377069
554.262329	52.312404
554.419983	52.320295
554.577637	52.349268
554.735291	52.389862
554.892944	52.356487
555.050598	52.349220
555.208252	52.366681
555.365845	52.298167
555.523438	52.310059
555.681030	52.331009
555.838684	52.260296
555.996216	52.186841
556.153809	52.201254
556.311401	52.205092
556.468994	52.269715
556.626526	52.197891
556.784058	52.182024
556.941589	52.167847
557.099121	52.192156
557.256653	52.212238
557.414185	52.244688
557.571716	52.237802
557.729187	52.164121
557.886719	52.144869
558.044189	52.154230
558.201660	52.149924
558.359131	52.097590
558.516602	52.151518
558.674011	52.190401
558.831482	52.153687
558.988892	52.147263
559.146362	52.127020
559.303772	52.127609
559.461182	52.135849
559.618591	52.166731
559.776001	52.278116
559.933350	52.268218
560.090759	52.265564
560.248108	52.195884
560.405518	52.137254
560.562866	52.230294
560.720215	52.244332
560.877563	52.292299
561.034851	52.311233
561.192200	52.354737
561.349548	52.469484
561.506836	52.564935
561.664124	52.526144
561.821411	52.447253
561.978699	52.479525
562.135986	52.510597
562.293274	52.635625
562.450500	52.570451
562.607788	52.554619
562.765015	52.531322
562.922241	52.460506
563.079468	52.507802
563.236694	52.597502
563.393921	52.698722
563.551147	52.747016
563.708313	52.610097
563.865540	52.633557
564.022705	52.656584
564.179871	52.627891
564.337036	52.574701
564.494202	52.608431
564.651367	52.680639
564.808472	52.793829
564.965637	52.944826
565.122742	52.853644
565.279846	52.861403
565.436951	52.858351
565.594055	52.798592
565.751160	52.793953
565.908264	52.692403
566.065308	52.714399
566.222412	52.756598
566.379456	52.674699
566.536499	52.680780
566.693542	52.694220
566.850586	52.794612
567.007629	52.731155
567.164673	52.762092
567.321655	52.732746
567.478699	52.814454
567.635681	52.735492
567.792664	52.748551
567.949646	52.588622
568.106628	52.518131
568.263611	52.535500
568.420532	52.518053
568.577515	52.518021
568.734436	52.664086
568.891357	52.744260
569.048279	52.856480
569.205200	52.834190
569.362122	52.791503
569.518982	52.829396
569.675903	52.937006
569.832764	52.946189
569.989685	52.962027
570.146545	52.994805
570.303406	53.007051
570.460266	53.086341
570.617065	53.099050
570.773926	53.113156
570.930786	53.060499
571.087585	53.234240
571.244385	53.184786
571.401184	53.315165
571.557983	53.363627
571.714783	53.393059
571.871582	53.474573
572.028320	53.468287
572.185120	53.457123
572.341858	53.487696
572.498596	53.402152
572.655334	53.338252
572.812073	53.192303
572.968811	53.166302
573.125488	53.177721
573.282227	53.211489
573.438904	53.245797
573.595581	53.287010
573.752258	53.256354
573.908936	53.322136
574.065613	53.366351
574.222290	53.287305
574.378906	53.358322
574.535583	53.286802
574.692200	53.349535
574.848816	53.254353
575.005432	53.175592
575.162048	53.166201
575.318665	53.151088
575.475281	53.086729
575.631836	53.167190
575.788452	53.264838
575.945007	53.302151
576.101562	53.370355
576.258118	53.304511
576.414673	53.252164
576.571167	53.243504
576.727722	53.278132
576.884216	53.243587
577.040771	53.199248
577.197266	53.201658
577.353760	53.213614
577.510254	53.175863
577.666748	53.224088
577.823181	53.177232
577.979675	53.267581
578.136108	53.304535
578.292542	53.316910
578.449036	53.343407
578.605469	53.354776
578.761841	53.374384
578.918274	53.323808
579.074707	53.423774
579.231079	53.296133
579.387451	53.306452
579.543884	53.280243
579.700256	53.265549
579.856628	53.182900
580.012939	53.246282
580.169312	53.283641
580.325684	53.205864
580.481995	53.231025
580.638306	53.315980
580.794617	53.279360
580.950928	53.326357
581.107239	53.395083
581.263550	53.351831
581.419800	53.322488
581.576111	53.342029
581.732361	53.378445
581.888611	53.432537
582.044861	53.474000
582.201111	53.417774
582.357361	53.499667
582.513611	53.524425
582.669800	53.617837
582.826050	53.624090
582.982239	53.659976
583.138428	53.582706
583.294617	53.509808
583.450806	53.565286
583.606995	53.513927
583.763123	53.463873
583.919312	53.528588
584.075439	53.533274
584.231567	53.548075
584.387695	53.620171
584.543823	53.635388
584.699951	53.626839
584.856018	53.620560
585.012146	53.580865
585.168213	53.583996
585.324341	53.655066
585.480408	53.643709
585.636475	53.618821
585.792480	53.640002
585.948547	53.658436
586.104614	53.699425
586.260620	53.757935
586.416626	53.792726
586.572693	53.802595
586.728699	53.807881
586.884705	53.818371
587.040649	53.735427
587.196655	53.792599
587.352600	53.737610
587.508606	53.724208
587.664551	53.752993
587.820496	53.740397
587.976440	53.768956
588.132385	53.757230
588.288330	53.786799
588.444214	53.736055
588.600159	53.816147
588.756042	53.869224
588.911926	53.829670
589.067810	53.856745
589.223694	53.860798
589.379578	53.897243
589.535400	53.909449
589.691284	53.967413
589.847107	54.011163
590.002930	53.975916
590.158752	53.964275
590.314575	53.890212
590.470398	53.924886
590.626221	53.896270
590.781982	53.858578
590.937805	53.857394
591.093567	53.865805
591.249329	53.893237
591.405090	53.844039
591.560852	53.920169
591.716614	53.902861
591.872375	53.873000
592.028076	53.856880
592.183777	53.799314
592.339539	53.771057
592.495239	53.743636
592.650940	53.821946
592.806580	53.773217
592.962280	53.837792
593.117920	53.902164
593.273621	53.972092
593.429260	54.062081
593.584900	54.011222
593.740540	54.058218
593.896179	54.065397
594.051819	54.103738
594.207397	54.082527
594.363037	54.039317
594.518616	54.080882
594.674194	54.075953
594.829773	54.050094
594.985352	54.086251
595.140930	54.075870
595.296509	54.105373
595.452026	54.156280
595.607605	54.192911
595.763123	54.152089
595.918640	54.186025
596.074158	54.138030
596.229675	54.168997
596.385132	54.121828
596.540649	54.044660
596.696106	54.153623
596.851624	54.238947
597.007080	54.238118
597.162537	54.312318
597.317993	54.290663
597.473389	54.322893
597.628845	54.364353
597.784241	54.252364
597.939697	54.256912
598.095093	54.216865
598.250488	54.247150
598.405884	54.235090
598.561279	54.213072
598.716614	54.251291
598.872009	54.277695
599.027344	54.217777
599.182739	54.266406
599.338074	54.240414
599.493408	54.311652
599.648682	54.326103
599.804016	54.279271
599.959351	54.207388
600.114624	54.247285
600.269958	54.171754
600.425232	54.202075
600.580505	54.249136
600.735779	54.156778
600.890991	54.234310
601.046265	54.243977
601.201477	54.233925
601.356750	54.235192
601.511963	54.185121
601.667175	54.216763
601.822388	54.162379
601.977600	54.093656
602.132812	54.196393
602.287964	54.131674
602.443115	54.147396
602.598328	54.162532
602.753479	54.155300
602.908630	54.150391
603.063782	54.134609
603.218872	54.116056
603.374023	54.162400
603.529114	54.180002
603.684265	54.112165
603.839355	54.199410
603.994446	54.211314
604.149536	54.205721
604.304626	54.288982
604.459656	54.322756
604.614746	54.433654
604.769775	54.430816
604.924805	54.458230
605.079834	54.453914
605.234863	54.450545
605.389893	54.467396
605.544922	54.464857
605.699890	54.522514
605.854919	54.566892
606.009888	54.590817
606.164856	54.571645
606.319824	54.570115
606.474792	54.529562
606.629761	54.530838
606.784668	54.540069
606.939636	54.501670
607.094543	54.486103
607.249451	54.503744
607.404358	54.479839
607.559265	54.549273
607.714172	54.506836
607.869080	54.494386
608.023926	54.578510
608.178772	54.706119
608.333679	54.596015
608.488525	54.626571
608.643372	54.629410
608.798218	54.578722
608.953003	54.531898
609.107849	54.574228
609.262634	54.591855
609.417419	54.715152
609.572266	54.761244
609.726990	54.742776
609.881775	54.808389
610.036560	54.820278
610.191345	54.783140
610.346069	54.800495
610.500793	54.865936
610.655579	54.862674
610.810303	54.926999
610.964966	54.941307
611.119690	54.890805
611.274414	54.815479
611.429077	54.897355
611.583801	54.867777
611.738464	54.862972
611.893127	54.800717
612.047791	54.891921
612.202454	54.890069
612.357056	54.892438
612.511719	54.832733
612.666321	54.756954
612.820923	54.806917
612.975586	54.790118
613.130188	54.797629
613.284729	54.811627
613.439331	54.738058
613.593933	54.674462
613.748474	54.544191
613.903015	54.478011
614.057556	54.486838
614.212097	54.511026
614.366638	54.437191
614.521179	54.475474
614.675720	54.442543
614.830200	54.518439
614.984680	54.551065
615.139221	54.544838
615.293701	54.465468
615.448181	54.466155
615.602600	54.458203
615.757080	54.538909
615.911499	54.522424
616.065979	54.608277
616.220398	54.537049
616.374817	54.590040
616.529236	54.682255
616.683655	54.818085
616.838074	54.865672
616.992432	54.942273
617.146851	54.930933
617.301208	54.839308
617.455566	54.886827
617.609924	54.816562
617.764282	54.905444
617.918579	54.859404
618.072937	54.878891
618.227234	54.881747
618.381592	54.914991
618.535889	54.911468
618.690186	54.915239
618.844482	54.887153
618.998718	54.903254
619.153015	54.819963
619.307312	54.865624
619.461548	54.893837
619.615784	54.869320
619.770020	54.819501
619.924255	54.860951
620.078491	54.772633
620.232666	54.895670
620.386902	54.990897
620.541077	54.946425
620.695251	54.973930
620.849487	54.923257
621.003601	54.935985
621.157776	54.968730
621.311951	55.007126
621.466064	54.967966
621.620239	55.091861
621.774353	55.092643
621.928467	55.137835
622.082581	55.169270
622.236694	55.192734
622.390808	55.250811
622.544861	55.196546
622.698975	55.246987
622.853027	55.195478
623.007080	55.146012
623.161133	55.203290
623.315186	55.089127
623.469238	55.054123
623.623230	55.170531
623.777283	55.149810
623.931274	55.200340
624.085266	55.207545
624.239258	55.247612
624.393250	55.198619
624.547241	55.279347
624.701233	55.166302
624.855164	55.155179
625.009094	55.137895
625.163086	55.154015
625.317017	55.202741
625.470947	55.181210
625.624817	55.178941
625.778748	55.131263
625.932617	55.157450
626.086548	55.222484
626.240417	55.212678
626.394287	55.258143
626.548157	55.276190
626.702026	55.295017
626.855896	55.308513
627.009705	55.341296
627.163574	55.259556
627.317383	55.197433
627.471191	55.238036
627.625000	55.246679
627.778809	55.254498
627.932556	55.298120
628.086365	55.334779
628.240112	55.314783
628.393921	55.272655
628.547668	55.269894
628.701416	55.280803
628.855164	55.246013
629.008850	55.214184
629.162598	55.246149
629.316284	55.250118
629.470032	55.192003
629.623718	55.163247
629.777405	55.149383
629.931091	55.206743
630.084778	55.183535
630.238403	55.285616
630.392090	55.363040
630.545715	55.297447
630.699341	55.305658
630.852966	55.349524
631.006592	55.350309
631.160217	55.286926
631.313843	55.258768
631.467407	55.236871
631.620972	55.227234
631.774597	55.254890
631.928162	55.274154
632.081726	55.274331
632.235229	55.302040
632.388794	55.253515
632.542358	55.266002
632.695862	55.268880
632.849365	55.244307
633.002869	55.240092
633.156372	55.196060
633.309875	55.212029
633.463379	55.168979
633.616821	55.213182
633.770325	55.151206
633.923767	55.145846
634.077209	55.148564
634.230652	55.199337
634.384094	55.209107
634.537537	55.257032
634.690918	55.311158
634.844299	55.326656
634.997742	55.411312
635.151123	55.428856
635.304504	55.468565
635.457886	55.529084
635.611206	55.557496
635.764587	55.550268
635.917908	55.562825
636.071289	55.554217
636.224609	55.596614
636.377930	55.616921
636.531250	55.615256
636.684570	55.602090
636.837830	55.671719
636.991150	55.690294
637.144409	55.742812
637.297668	55.682695
637.450928	55.727935
637.604187	55.723472
637.757446	55.746959
637.910645	55.784399
638.063904	55.807607
638.217102	55.720321
638.370300	55.704950
638.523499	55.682219
638.676697	55.683025
638.829895	55.754974
638.983093	55.732858
639.136230	55.690141
639.289429	55.701436
639.442566	55.623768
639.595703	55.635885
639.748840	55.689240
639.901978	55.720763
640.055054	55.757418
640.208191	55.600662
640.361267	55.615696
640.514343	55.599065
640.667419	55.563841
640.820496	55.492434
640.973572	55.493250
641.126648	55.470406
641.279663	55.539747
641.432739	55.521391
641.585754	55.568239
641.738770	55.546769
641.891785	55.549602
642.044800	55.592356
642.197754	55.660201
642.350769	55.716918
642.503723	55.735885
642.656738	55.741648
642.809692	55.633662
642.962646	55.619790
643.115540	55.606509
643.268494	55.776134
643.421448	55.885951
643.574341	55.881228
643.727234	55.984238
643.880127	56.049865
644.033020	56.134130
644.185913	56.115920
644.338806	56.240728
644.491699	56.230700
644.644531	56.201168
644.797363	56.225006
644.950195	56.232299
645.103027	56.238607
645.255859	56.208931
645.408691	56.145061
645.561462	56.203946
645.714294	56.218743
645.867065	56.351888
646.019836	56.334061
646.172607	56.266010
646.325378	56.159106
646.478149	56.098331
646.630859	56.143229
646.783630	56.096241
646.936340	56.096334
647.089050	56.005452
647.241760	56.014052
647.394470	55.988022
647.547180	55.965566
647.699829	55.978680
647.852539	55.985792
648.005188	55.993968
648.157837	56.005667
648.310486	55.994434
648.463135	56.067332
648.615784	56.025844
648.768433	56.012468
648.921021	55.968477
649.073608	55.966054
649.226257	56.017141
649.378845	56.092512
649.531372	56.068763
649.683960	56.055258
649.836548	56.067917
649.989075	56.000718
650.141663	56.005211
650.294189	56.016197
650.446716	55.991727
650.599243	56.020141
650.751709	56.057137
650.904236	56.086983
651.056702	56.098308
651.209229	56.128314
651.361694	56.192275
651.514160	56.128473
651.666626	56.213123
651.819092	56.197222
651.971497	56.217039
652.123962	56.172305
652.276367	56.203713
652.428772	56.222630
652.581177	56.260791
652.733582	56.255211
652.885986	56.236531
653.038330	56.345276
653.190735	56.330719
653.343079	56.306982
653.495422	56.333777
653.647827	56.354787
653.800110	56.378927
653.952454	56.359924
654.104797	56.323879
654.257080	56.257697
654.409424	56.263045
654.561707	56.342878
654.713989	56.308991
654.866272	56.333015
655.018555	56.358905
655.170776	56.375710
655.323059	56.357432
655.475281	56.345479
655.627502	56.298588
655.779724	56.296487
655.931946	56.316586
656.084167	56.250359
656.236328	56.249878
656.388550	56.251883
656.540710	56.203522
656.692871	56.181676
656.845093	56.109895
656.997192	56.109776
657.149353	56.075608
657.301514	56.083410
657.453613	55.995869
657.605774	55.932463
657.757874	55.891785
657.909973	55.900852
658.062073	55.851913
658.214172	55.853067
658.366211	55.909751
658.518311	55.893164
658.670349	55.932587
658.822388	55.916463
658.974426	55.919289
659.126465	55.935831
659.278503	55.941732
659.430481	55.940730
659.582520	55.895013
659.734497	55.853345
659.886475	55.933166
660.038452	55.878169
660.190430	55.956895
660.342407	55.957237
660.494385	56.031566
660.646301	56.017528
660.798279	56.042451
660.950195	55.985715
661.102112	55.982061
661.254028	56.059427
661.405884	56.044493
661.557800	56.037407
661.709717	56.039231
661.861572	56.107432
662.013428	56.033761
662.165283	56.077184
662.317139	56.093442
662.468994	56.104175
662.620789	56.214389
662.772644	56.265229
662.924438	56.199331
663.076233	56.266100
663.228027	56.200063
663.379822	56.243433
663.531616	56.202345
663.683411	56.238748
663.835144	56.245953
663.986877	56.358719
664.138611	56.328111
664.290344	56.247135
664.442078	56.174153
664.593811	56.162062
664.745544	56.206600
664.897217	56.170058
665.048889	56.202800
665.200623	56.157884
665.352295	56.153705
665.503967	56.154296
665.655579	56.139764
665.807251	56.132058
665.958862	56.139099
666.110535	56.123781
666.262146	56.148531
666.413757	56.103113
666.565369	56.182329
666.716919	56.212065
666.868530	56.188752
667.020081	56.156775
667.171692	56.224166
667.323242	56.239102
667.474792	56.291117
667.626343	56.323498
667.777832	56.317404
667.929382	56.290907
668.080872	56.382298
668.232422	56.425367
668.383911	56.488185
668.535400	56.539836
668.686890	56.496417
668.838318	56.561204
668.989807	56.574100
669.141235	56.585811
669.292725	56.585118
669.444153	56.645853
669.595581	56.646688
669.747009	56.643705
669.898376	56.601522
670.049805	56.587703
670.201172	56.562476
670.352539	56.593390
670.503967	56.562177
670.655273	56.557713
670.806641	56.547635
670.958008	56.516736
671.109375	56.445743
671.260681	56.487694
671.411987	56.511650
671.563293	56.492999
671.714600	56.513534
671.865906	56.411769
672.017212	56.429899
672.168457	56.431524
672.319763	56.445344
672.471008	56.453283
672.622253	56.443967
672.773499	56.470525
672.924744	56.546968
673.075928	56.597049
673.227173	56.641822
673.378357	56.655488
673.529541	56.701544
673.680786	56.742558
673.831909	56.752805
673.983093	56.922509
674.134277	56.962679
674.285400	56.893479
674.436584	56.824177
674.587708	56.793966
674.738831	56.782635
674.889954	56.878649
675.041077	56.902107
675.192139	56.942097
675.343262	56.889424
675.494324	56.879010
675.645386	56.843719
675.796448	56.832406
675.947510	56.832680
676.098572	56.809970
676.249634	56.765864
676.400635	56.740079
676.551636	56.699117
676.702698	56.698509
676.853699	56.710680
677.004639	56.628070
677.155640	56.635111
677.306641	56.658807
677.457581	56.659488
677.608521	56.713661
677.759521	56.756620
677.910461	56.684652
678.061401	56.651996
678.212280	56.687639
678.363220	56.733559
678.514099	56.721502
678.664978	56.726181
678.815918	56.721346
678.966797	56.705076
679.117615	56.685679
679.268494	56.729827
679.419373	56.776343
679.570190	56.881971
679.721008	56.901026
679.871826	56.871492
680.022644	56.845891
680.173462	56.861976
680.324280	56.874101
680.475037	56.846157
680.625854	56.899556
680.776611	56.836855
680.927368	56.880535
681.078125	56.893310
681.228882	56.884592
681.379639	56.911500
681.530334	56.944018
681.681030	56.980282
681.831787	56.918738
681.982483	56.959854
682.133179	56.997599
682.283813	57.012279
682.434509	56.999470
682.585205	56.965257
682.735840	56.907808
682.886475	56.934395
683.037109	56.966211
683.187744	56.958704
683.338379	56.983303
683.488953	57.069304
683.639587	56.971962
683.790161	57.008476
683.940735	56.979831
684.091309	57.043389
684.241882	57.032625
684.392456	56.998788
684.543030	56.936958
684.693542	56.889579
684.844055	56.924678
684.994568	56.898427
685.145081	56.898956
685.295593	56.906677
685.446106	56.923697
685.596619	56.948310
685.747070	56.948521
685.897522	56.937854
686.047974	56.944943
686.198425	56.922375
686.348877	56.938556
686.499329	56.948584
686.649719	56.992423
686.800171	57.027211
686.950562	57.009139
687.100952	56.920262
687.251343	56.932896
687.401733	56.971149
687.552124	56.990496
687.702454	57.057130
687.852783	57.048829
688.003174	57.117803
688.153503	57.063427
688.303833	57.015133
688.454102	56.962928
688.604431	56.883680
688.754700	56.929088
688.905029	56.951632
689.055298	56.962578
689.205566	56.972257
689.355835	56.898296
689.506104	56.874489
689.656311	56.891580
689.806580	56.876599
689.956787	56.955886
690.106995	57.010421
690.257202	56.972012
690.407410	56.968338
690.557617	56.978784
690.707764	57.014410
690.857971	57.071877
691.008118	57.016157
691.158264	57.042509
691.308411	57.065901
691.458557	57.135040
691.608704	57.217306
691.758789	57.251826
691.908936	57.260017
692.059021	57.236392
692.209106	57.209027
692.359192	57.271007
692.509277	57.265886
692.659302	57.203196
692.809387	57.205939
692.959412	57.168234
693.109436	57.147643
693.259460	57.156968
693.409485	57.165361
693.559509	57.191980
693.709534	57.153849
693.859497	57.116377
694.009521	57.120036
694.159485	57.108575
694.309448	57.116596
694.459412	57.097985
694.609314	57.054566
694.759277	56.987640
694.909180	56.936200
695.059143	56.936469
695.209045	57.028024
695.358948	56.998393
695.508850	57.014981
695.658691	57.020595
695.808594	56.986473
695.958435	56.975316
696.108337	57.012580
696.258179	56.960851
696.408020	56.954552
696.557800	56.907111
696.707642	56.940282
696.857483	56.933512
697.007263	56.971236
697.157043	57.026358
697.306824	57.065917
697.456604	57.067881
697.606384	57.067856
697.756165	57.086785
697.905884	57.113393
698.055603	57.106236
698.205383	57.070821
698.355103	57.076297
698.504822	57.091430
698.654480	57.129179
698.804199	57.253626
698.953857	57.306190
699.103577	57.265243
699.253235	57.344537
699.402893	57.359300
699.552551	57.393606
699.702148	57.356380
699.851807	57.386496
700.001404	57.320928
700.151062	57.315850
700.300659	57.320623
700.450256	57.274017
700.599792	57.298469
700.749390	57.280365
700.898987	57.300867
701.048523	57.288131
701.198059	57.315801
701.347595	57.385685
701.497131	57.324358
701.646667	57.348474
701.796204	57.271048
701.945679	57.222283
702.095154	57.295798
702.244690	57.256012
702.394165	57.256251
702.543640	57.248343
702.693054	57.283960
702.842529	57.304454
702.991943	57.344658
703.141418	57.332322
703.290833	57.285604
703.440247	57.331494
703.589661	57.314294
703.739014	57.348024
703.888428	57.394323
704.037781	57.432437
704.187134	57.445045
704.336487	57.382157
704.485840	57.400540
704.635193	57.362814
704.784546	57.370183
704.933838	57.372406
705.083191	57.395589
705.232483	57.433428
705.381775	57.449742
705.531067	57.490561
705.680359	57.500031
705.829590	57.519535
705.978882	57.502698
706.128113	57.574095
706.277344	57.592783
706.426575	57.621562
706.575806	57.610738
706.725037	57.591559
706.874207	57.555481
707.023438	57.582461
707.172607	57.578282
707.321777	57.560885
707.470947	57.565653
707.620117	57.550770
707.769287	57.561707
707.918396	57.605392
708.067505	57.572907
708.216675	57.568054
708.365784	57.540883
708.514893	57.574126
708.663940	57.472616
708.813049	57.458380
708.962097	57.445950
709.111206	57.367401
709.260254	57.329919
709.409302	57.339055
709.558350	57.412541
709.707397	57.426632
709.856384	57.440868
710.005432	57.443174
710.154419	57.389590
710.303406	57.382788
710.452393	57.383592
710.601379	57.450135
710.750305	57.430261
710.899292	57.420222
711.048218	57.398248
711.197205	57.382916
711.346130	57.421018
711.495056	57.383627
711.643921	57.444313
711.792847	57.411530
711.941711	57.486990
712.090637	57.505722
712.239502	57.581290
712.388367	57.504897
712.537231	57.489704
712.686096	57.549004
712.834900	57.550870
712.983765	57.537589
713.132568	57.496172
713.281372	57.563361
713.430176	57.556228
713.578979	57.592371
713.727722	57.607101
713.876526	57.613405
714.025269	57.611949
714.174072	57.619146
714.322815	57.585192
714.471558	57.538758
714.620239	57.616356
714.768982	57.630988
714.917664	57.605584
715.066406	57.593522
715.215088	57.553911
715.363770	57.678802
715.512451	57.627095
715.661072	57.583617
715.809753	57.577659
715.958374	57.535589
716.107056	57.623684
716.255676	57.599504
716.404297	57.674765
716.552917	57.685662
716.701477	57.706112
716.850098	57.710084
716.998657	57.776912
717.147217	57.768027
717.295776	57.768752
717.444336	57.791808
717.592896	57.717164
717.741455	57.765734
717.889954	57.749680
718.038513	57.763548
718.187012	57.775526
718.335510	57.726370
718.484009	57.754424
718.632446	57.698892
718.780945	57.755003
718.929382	57.811141
719.077881	57.795378
719.226318	57.829971
719.374756	57.808909
719.523132	57.762677
719.671570	57.755437
719.820007	57.755379
719.968384	57.723880
720.116760	57.735837
720.265137	57.766127
720.413513	57.777048
720.561890	57.781977
720.710205	57.744185
720.858582	57.764859
721.006897	57.702898
721.155212	57.739955
721.303528	57.715821
721.451843	57.729139
721.600159	57.782117
721.748413	57.733032
721.896729	57.703539
722.044983	57.732103
722.193237	57.730682
722.341492	57.710912
722.489746	57.758498
722.637939	57.699010
722.786194	57.712956
722.934387	57.696376
723.082581	57.712551
723.230774	57.729535
723.378967	57.764200
723.527161	57.784126
723.675354	57.815091
723.823486	57.810432
723.971619	57.884476
724.119751	57.899041
724.267883	57.932810
724.416016	57.917131
724.564148	57.973983
724.712219	57.932829
724.860352	57.981788
725.008423	57.946932
725.156494	57.949680
725.304565	57.972201
725.452637	57.919761
725.600647	58.037042
725.748718	58.029412
725.896729	58.033007
726.044739	58.049463
726.192749	58.063687
726.340759	58.063530
726.488770	58.081695
726.636719	58.083014
726.784729	58.099226
726.932678	58.118168
727.080627	58.111167
727.228577	58.115798
727.376526	58.142299
727.524414	58.084749
727.672363	58.131882
727.820251	58.114064
727.968140	58.142376
728.116028	58.135732
728.263916	58.115911
728.411804	58.126738
728.559631	58.075948
728.707520	58.069651
728.855347	58.072052
729.003174	58.046518
729.151001	58.046026
729.298828	58.086112
729.446594	58.092221
729.594421	58.076177
729.742188	58.058457
729.890015	58.045467
730.037781	58.010196
730.185486	57.997706
730.333252	58.002946
730.481018	58.017008
730.628723	58.012014
730.776428	58.028321
730.924194	58.026681
731.071899	58.008085
731.219543	58.003318
731.367249	58.016088
731.514954	58.020767
731.662598	58.030101
731.810242	58.035782
731.957886	58.073655
732.105530	58.019908
732.253174	57.972438
732.400818	57.919633
732.548401	57.914102
732.695984	57.934781
732.843567	57.949565
732.991150	57.982414
733.138733	58.008714
733.286316	58.009782
733.433838	58.010080
733.581421	57.983674
733.728943	57.984278
733.876465	57.978857
734.023987	57.981076
734.171509	58.006672
734.318970	57.976111
734.466492	57.985164
734.613953	57.979061
734.761414	57.996830
734.908875	57.980486
735.056335	58.043505
735.203796	58.067100
735.351196	58.132713
735.498657	58.138064
735.646057	58.151748
735.793457	58.129803
735.940857	58.150813
736.088257	58.147218
736.235657	58.159427
736.382996	58.171454
736.530334	58.253985
736.677734	58.239279
736.825073	58.267686
736.972351	58.288473
737.119690	58.289084
737.267029	58.333198
737.414307	58.363805
737.561584	58.397281
737.708862	58.407353
737.856140	58.412382
738.003418	58.414256
738.150696	58.386678
738.297913	58.370761
738.445190	58.405970
738.592407	58.383995
738.739624	58.404262
738.886841	58.381268
739.033997	58.406742
739.181213	58.388368
739.328369	58.407877
739.475586	58.379755
739.622742	58.391942
739.769897	58.363242
739.916992	58.364531
740.064148	58.377913
740.211304	58.370657
740.358398	58.353353
740.505493	58.352229
740.652588	58.345599
740.799683	58.361228
740.946777	58.327398
741.093811	58.340550
741.240906	58.326678
741.387939	58.295346
741.534973	58.340328
741.682007	58.327463
741.829041	58.329036
741.976013	58.295051
742.123047	58.289384
742.270020	58.277364
742.416992	58.275547
742.563965	58.275529
742.710938	58.284267
742.857910	58.261420
743.004883	58.258608
743.151794	58.282944
743.298706	58.319111
743.445618	58.305233
743.592529	58.327217
743.739441	58.326392
743.886353	58.360290
744.033203	58.391008
744.180115	58.417434
744.326965	58.411398
744.473816	58.374620
744.620667	58.377761
744.767456	58.369560
744.914307	58.373862
745.061096	58.395440
745.207947	58.420007
745.354736	58.443308
745.501526	58.478376
745.648254	58.494051
745.795044	58.511834
745.941833	58.497147
746.088562	58.477321
746.235291	58.443200
746.382019	58.422776
746.528748	58.415044
746.675476	58.402098
746.822144	58.401297
746.968872	58.378928
747.115540	58.361181
747.262207	58.386664
747.408875	58.384663
747.555542	58.398687
747.702148	58.405289
747.848816	58.390566
747.995422	58.382913
748.142029	58.339440
748.288635	58.297062
748.435242	58.228637
748.581848	58.174666
748.728394	58.184196
748.875000	58.192560
749.021545	58.194665
749.168091	58.173807
749.314636	58.211662
749.461182	58.249547
749.607666	58.274290
749.754211	58.317506
749.900696	58.331880
750.047180	58.379024
750.193665	58.382928
750.340149	58.407989
750.486633	58.418630
750.633057	58.426996
750.779541	58.457528
750.925964	58.453986
751.072388	58.476533
751.218811	58.503322
751.365234	58.524724
751.511597	58.589307
751.658020	58.576749
751.804382	58.605130
751.950745	58.633292
752.097107	58.678501
752.243469	58.678596
752.389832	58.630993
752.536133	58.626189
752.682495	58.592242
752.828796	58.590612
752.975098	58.572952
753.121399	58.576306
753.267639	58.562552
753.413940	58.581193
753.560181	58.572210
753.706482	58.591009
753.852722	58.599506
753.998962	58.613928
754.145203	58.646999
754.291382	58.646806
754.437622	58.644512
754.583801	58.667340
754.729980	58.613724
754.876160	58.598418
755.022339	58.573351
755.168518	58.557998
755.314697	58.581512
755.460815	58.565827
755.606934	58.568895
755.753052	58.582154
755.899170	58.589975
756.045288	58.568595
756.191406	58.580793
756.337463	58.555190
756.483521	58.574323
756.629639	58.554325
756.775696	58.564905
756.921692	58.588980
757.067749	58.546596
757.213806	58.565745
757.359802	58.559270
757.505798	58.535423
757.651794	58.593617
757.797791	58.588752
757.943787	58.629698
758.089783	58.665664
758.235718	58.655610
758.381653	58.708902
758.527588	58.702088
758.673523	58.695874
758.819458	58.677938
758.965393	58.704936
759.111267	58.727067
759.257202	58.745294
759.403076	58.752918
759.548950	58.784076
759.694824	58.757637
759.840698	58.759156
759.986511	58.793172
760.132385	58.769978
760.278198	58.753360
760.424011	58.743545
760.569824	58.745783
760.715637	58.762143
760.861389	58.733015
761.007202	58.729414
761.152954	58.734569
761.298706	58.700477
761.444458	58.697625
761.590210	58.682176
761.735962	58.719815
761.881653	58.734869
762.027405	58.704895
762.173096	58.683948
762.318787	58.675350
762.464478	58.664973
762.610168	58.699329
762.755798	58.698565
762.901489	58.708431
763.047119	58.771888
763.192749	58.791358
763.338379	58.859112
763.484009	58.893806
763.629639	58.877517
763.775208	58.881265
763.920837	58.899749
764.066406	58.891454
764.211975	58.903903
764.357544	58.937950
764.503052	58.937960
764.648621	58.917430
764.794128	58.909480
764.939697	58.922756
765.085205	58.943260
765.230713	58.919300
765.376221	58.910994
765.521667	58.915071
765.667175	58.876374
765.812622	58.858905
765.958069	58.824167
766.103516	58.836785
766.248962	58.823161
766.394409	58.784179
766.539795	58.813275
766.685181	58.809885
766.830627	58.812992
766.976013	58.816805
767.121399	58.796201
767.266724	58.811350
767.412109	58.839412
767.557434	58.837539
767.702820	58.823452
767.848145	58.813772
767.993469	58.798195
768.138733	58.823140
768.284058	58.828170
768.429382	58.815536
768.574646	58.877054
768.719910	58.874537
768.865173	58.907915
769.010437	58.922706
769.155701	58.939956
769.300903	58.979208
769.446167	58.946522
769.591370	58.947729
769.736572	58.922113
769.881775	58.909376
770.026978	58.943901
770.172119	58.927704
770.317322	58.956926
770.462463	58.964162
770.607605	58.988189
770.752747	59.005450
770.897888	59.053723
771.042969	59.060697
771.188110	59.084903
771.333191	59.125989
771.478271	59.081314
771.623352	59.087546
771.768433	59.094441
771.913513	59.063713
772.058533	59.035570
772.203613	58.993025
772.348633	58.991638
772.493652	58.982067
772.638672	59.010589
772.783691	59.030672
772.928650	59.033085
773.073669	59.012789
773.218628	59.015221
773.363586	59.017332
773.508545	59.010344
773.653503	59.046472
773.798462	59.016601
773.943359	59.012035
774.088257	58.976248
774.233215	58.967867
774.378113	58.995884
774.522949	59.023648
774.667847	59.014450
774.812744	59.056166
774.957581	59.052982
775.102417	59.080144
775.247253	59.124398
775.392090	59.175477
775.536926	59.154126
775.681763	59.140624
775.826538	59.125055
775.971313	59.141331
776.116089	59.105750
776.260864	59.111229
776.405640	59.112700
776.550415	59.110020
776.695129	59.118998
776.839905	59.134110
776.984619	59.164159
777.129333	59.125229
777.274048	59.132700
777.418701	59.113490
777.563416	59.105755
777.708069	59.093746
777.852722	59.125744
777.997375	59.102310
778.142029	59.115650
778.286682	59.093276
778.431335	59.102923
778.575928	59.138683
778.720520	59.165302
778.865112	59.184049
779.009705	59.200425
779.154297	59.201202
779.298889	59.246345
779.443420	59.211050
779.588013	59.260839
779.732544	59.246775
779.877075	59.253639
780.021606	59.289963
780.166077	59.310836
780.310608	59.316571
780.455078	59.334281
780.599548	59.348103
780.744019	59.338715
780.888489	59.386817
781.032959	59.392003
781.177429	59.397208
781.321838	59.432348
781.466248	59.431468
781.610657	59.428639
781.755066	59.416306
781.899475	59.389979
782.043884	59.411595
782.188232	59.378378
782.332581	59.407232
782.476929	59.350282
782.621277	59.387839
782.765625	59.406623
782.909973	59.415926
783.054260	59.438877
783.198608	59.469199
783.342896	59.457362
783.487183	59.473099
783.631470	59.476538
783.775696	59.442172
783.919983	59.419870
784.064209	59.438747
784.208435	59.422075
784.352722	59.402340
784.496887	59.390181
784.641113	59.406394
784.785339	59.414071
784.929504	59.373493
785.073669	59.349758
785.217896	59.377712
785.362000	59.377235
785.506165	59.352381
785.650330	59.339493
785.794434	59.357065
785.938599	59.331956
786.082703	59.284892
786.226807	59.295829
786.370911	59.258856
786.514954	59.249989
786.659058	59.247616
786.803101	59.282385
786.947144	59.270163
787.091187	59.239394
787.235229	59.231365
787.379272	59.240424
787.523254	59.231792
787.667297	59.268853
787.811279	59.260954
787.955261	59.298813
788.099243	59.309627
788.243225	59.309460
788.387146	59.304378
788.531128	59.282458
788.675049	59.266633
788.818970	59.243201
788.962891	59.292830
789.106812	59.281277
789.250671	59.315607
789.394592	59.338715
789.538452	59.355321
789.682312	59.299868
789.826172	59.313181
789.970032	59.324695
790.113892	59.352119
790.257690	59.365957
790.401550	59.337369
790.545349	59.353495
790.689148	59.426083
790.832947	59.409233
790.976685	59.371756
791.120483	59.392346
791.264221	59.411523
791.408020	59.440429
791.551758	59.420742
791.695435	59.404653
791.839172	59.376494
791.982910	59.404801
792.126587	59.408214
792.270264	59.382156
792.414001	59.419535
792.557617	59.424635
792.701294	59.373056
792.844971	59.400179
792.988586	59.395053
793.132263	59.397647
793.275879	59.421185
793.419495	59.390404
793.563110	59.346487
793.706665	59.336829
793.850281	59.338989
793.993835	59.356829
794.137390	59.369855
794.280945	59.388965
794.424500	59.395143
794.568054	59.436038
794.711548	59.453716
794.855103	59.425278
794.998596	59.431530
795.142090	59.479934
795.285583	59.456010
795.429016	59.465466
795.572510	59.493023
795.715942	59.475731
795.859436	59.500862
796.002869	59.483162
796.146301	59.496179
796.289673	59.517638
796.433105	59.553796
796.576477	59.540170
796.719910	59.542145
796.863281	59.535587
797.006653	59.574745
797.149963	59.518511
797.293335	59.507555
797.436707	59.513536
797.580017	59.492506
797.723328	59.504677
797.866638	59.508349
798.009949	59.487542
798.153198	59.506005
798.296509	59.498003
798.439758	59.522464
798.583008	59.541458
798.726257	59.552962
798.869507	59.536450
799.012756	59.546032
799.156006	59.514120
799.299194	59.499352
799.442383	59.520347
799.585571	59.508364
799.728760	59.475388
799.871948	59.412647
800.015076	59.491250
800.158264	59.543673
800.301392	59.503787
800.444519	59.535000
800.587646	59.568359
800.730774	59.554769
800.873840	59.509654
801.016968	59.525616
801.160034	59.553717
801.303101	59.533661
801.446167	59.543443
801.589233	59.551080
801.732239	59.587983
801.875305	59.555187
802.018311	59.586640
802.161316	59.559993
802.304321	59.593964
802.447327	59.600932
802.590332	59.597494
802.733276	59.612650
802.876282	59.556568
803.019226	59.528789
803.162170	59.531728
803.305115	59.467609
803.447998	59.455413
803.590942	59.404439
803.733826	59.468953
803.876709	59.413708
804.019592	59.429676
804.162476	59.428464
804.305359	59.426229
804.448181	59.387440
804.591064	59.374289
804.733887	59.363946
804.876709	59.401378
805.019531	59.424323
805.162354	59.385878
805.305115	59.402991
805.447937	59.481987
805.590698	59.525120
805.733459	59.551536
805.876221	59.569253
806.018982	59.626009
806.161682	59.669013
806.304443	59.616263
806.447144	59.699601
806.589844	59.727929
806.732544	59.729724
806.875244	59.692403
807.017883	59.704840
807.160583	59.689909
807.303223	59.742145
807.445862	59.741942
807.588501	59.819012
807.731140	59.757175
807.873779	59.768088
808.016357	59.791625
808.158936	59.803572
808.301575	59.796375
808.444153	59.797411
808.586670	59.774523
808.729248	59.817213
808.871826	59.812886
809.014343	59.781573
809.156860	59.819817
809.299377	59.785101
809.441895	59.766559
809.584412	59.753267
809.726868	59.772714
809.869385	59.807148
810.011841	59.781518
810.154297	59.780076
810.296753	59.814670
810.439148	59.795018
810.581604	59.849576
810.723999	59.828935
810.866455	59.863226
811.008850	59.865387
811.151184	59.846334
811.293579	59.833614
811.435974	59.828035
811.578308	59.790127
811.720642	59.760410
811.863037	59.828856
812.005310	59.850230
812.147644	59.851000
812.289978	59.824997
812.432251	59.921301
812.574524	59.926488
812.716858	59.949827
812.859070	60.024047
813.001343	59.992610
813.143616	60.010802
813.285828	60.051173
813.428101	60.003057
813.570312	59.989499
813.712524	60.010395
813.854675	60.010032
813.996887	60.009859
814.139099	60.004677
814.281250	60.018471
814.423401	59.995533
814.565552	60.002585
814.707703	60.013592
814.849792	59.991420
814.991943	59.994139
815.134033	59.974621
815.276123	59.892749
815.418213	59.904880
815.560303	59.875754
815.702393	59.832924
815.844421	59.810780
815.986511	59.780422
816.128540	59.746753
816.270569	59.771857
816.412598	59.794960
816.554565	59.754148
816.696594	59.778757
816.838562	59.796122
816.980591	59.816708
817.122559	59.836474
817.264465	59.865176
817.406433	59.893529
817.548401	59.801705
817.690308	59.811363
817.832214	59.804970
817.974121	59.800297
818.116028	59.813951
818.257935	59.818807
818.399780	59.797860
818.541687	59.818378
818.683533	59.832198
818.825378	59.823948
818.967224	59.838550
819.109070	59.847451
819.250854	59.871591
819.392700	59.844190
819.534485	59.760160
819.676270	59.706949
819.818054	59.668870
819.959839	59.648615
820.101562	59.607925
820.243347	59.627483
820.385071	59.684569
820.526794	59.707414
820.668518	59.735605
820.810242	59.776601
820.951904	59.776855
821.093628	59.749007
821.235291	59.773994
821.376953	59.759870
821.518616	59.762618
821.660278	59.748911
821.801880	59.697962
821.943542	59.725447
822.085144	59.723910
822.226746	59.755635
822.368347	59.803002
822.509949	59.860724
822.651550	59.904927
822.793091	59.933220
822.934631	59.998786
823.076233	59.979362
823.217773	60.035574
823.359253	60.031310
823.500793	60.042036
823.642273	60.070901
823.783813	60.120726
823.925293	60.109788
824.066772	60.096686
824.208252	60.127233
824.349670	60.163030
824.491150	60.235627
824.632568	60.231103
824.773987	60.196020
824.915405	60.217463
825.056824	60.286370
825.198242	60.321693
825.339600	60.291824
825.481018	60.268399
825.622375	60.255927
825.763733	60.244952
825.905029	60.238460
826.046387	60.175483
826.187744	60.183511
826.329041	60.173972
826.470337	60.137704
826.611633	60.159526
826.752930	60.199542
826.894226	60.231525
827.035461	60.257835
827.176758	60.216961
827.317993	60.192795
827.459229	60.205144
827.600464	60.246021
827.741638	60.214737
827.882874	60.171038
828.024048	60.145191
828.165222	60.189346
828.306396	60.178754
828.447571	60.179489
828.588745	60.189860
828.729858	60.158817
828.871033	60.224240
829.012146	60.197691
829.153259	60.163860
829.294373	60.150164
829.435486	60.102576
829.576538	60.122612
829.717590	60.073173
829.858704	60.047548
829.999756	60.077975
830.140808	60.059598
830.281799	60.080836
830.422852	60.065164
830.563843	60.091481
830.704834	60.090944
830.845825	60.082224
830.986816	60.038591
831.127808	60.049938
831.268799	60.035751
831.409729	60.009517
831.550659	60.016316
831.691589	59.940532
831.832520	59.988683
831.973450	60.012662
832.114319	60.081755
832.255249	60.090210
832.396118	60.073500
832.536987	60.105582
832.677856	60.096684
832.818726	60.087090
832.959534	60.092799
833.100342	60.084179
833.241211	60.099074
833.382019	60.078776
833.522827	60.073721
833.663574	60.112503
833.804382	60.149357
833.945129	60.157505
834.085876	60.180288
834.226685	60.188704
834.367371	60.221164
834.508118	60.294269
834.648865	60.308434
834.789551	60.309485
834.930237	60.242305
835.070923	60.272974
835.211609	60.238058
835.352295	60.202199
835.492981	60.163584
835.633606	60.207300
835.774231	60.221283
835.914856	60.212325
836.055481	60.190382
836.196106	60.222927
836.336670	60.201731
836.477295	60.185889
836.617859	60.166082
836.758423	60.180795
836.898987	60.168133
837.039551	60.167296
837.180054	60.172477
837.320618	60.178203
837.461121	60.180083
837.601624	60.214265
837.742126	60.245291
837.882629	60.200066
838.023071	60.229799
838.163574	60.333861
838.304016	60.358535
838.444458	60.295579
838.584900	60.283830
838.725281	60.315592
838.865723	60.352243
839.006104	60.338139
839.146545	60.367558
839.286926	60.372966
839.427307	60.407285
839.567627	60.394835
839.708008	60.428124
839.848328	60.423057
839.988647	60.431548
840.128967	60.382144
840.269287	60.329507
840.409607	60.308478
840.549927	60.324766
840.690186	60.356616
840.830444	60.330119
840.970703	60.280706
841.110962	60.287546
841.251221	60.342636
841.391418	60.310736
841.531677	60.288860
841.671875	60.293135
841.812073	60.287214
841.952271	60.251278
842.092468	60.268669
842.232605	60.268050
842.372803	60.245879
842.512939	60.223549
842.653076	60.274055
842.793213	60.267011
842.933289	60.262870
843.073425	60.264028
843.213501	60.270352
843.353638	60.234939
843.493713	60.232595
843.633789	60.251192
843.773804	60.220824
843.913879	60.221044
844.053894	60.222948
844.193909	60.232637
844.333923	60.214018
844.473938	60.166342
844.613953	60.133099
844.753906	60.156294
844.893921	60.166977
845.033875	60.157844
845.173828	60.199216
845.313782	60.220288
845.453735	60.126128
845.593628	60.123348
845.733582	60.153312
845.873474	60.170307
846.013367	60.176975
846.153259	60.213067
846.293091	60.243967
846.432983	60.293044
846.572815	60.318413
846.712646	60.339967
846.852478	60.337179
846.992310	60.352367
847.132141	60.371723
847.271912	60.399047
847.411743	60.469871
847.551514	60.490896
847.691284	60.428235
847.831055	60.388899
847.970764	60.350604
848.110535	60.360773
848.250244	60.438033
848.389954	60.455305
848.529663	60.440339
848.669373	60.485060
848.809082	60.479370
848.948730	60.518504
849.088440	60.491270
849.228088	60.491706
849.367737	60.502555
849.507385	60.498207
849.646973	60.511799
849.786621	60.515500
849.926208	60.561592
850.065796	60.515618
850.205383	60.459766
850.344971	60.460784
850.484558	60.531916
850.624084	60.515645
850.763611	60.575108
850.903198	60.542153
851.042725	60.518950
851.182190	60.551526
851.321716	60.613479
851.461182	60.572734
851.600708	60.587446
851.740173	60.539111
851.879639	60.533841
852.019104	60.497394
852.158508	60.522961
852.297974	60.535439
852.437378	60.534302
852.576782	60.529950
852.716187	60.527472
852.855591	60.526397
852.994934	60.591211
853.134338	60.588803
853.273682	60.541106
853.413025	60.594587
853.552368	60.584177
853.691711	60.602582
853.830994	60.604037
853.970337	60.562363
854.109619	60.498494
854.248901	60.495855
854.388184	60.496023
854.527466	60.481014
854.666687	60.485491
854.805969	60.547065
854.945190	60.509926
855.084412	60.512067
855.223633	60.504188
855.362854	60.496554
855.502014	60.495960
855.641235	60.533362
855.780396	60.450172
855.919556	60.452064
856.058716	60.460839
856.197876	60.447495
856.336975	60.397040
856.476135	60.421887
856.615234	60.444632
856.754333	60.428292
856.893433	60.424542
857.032471	60.481032
857.171570	60.432334
857.310608	60.492914
857.449646	60.491416
857.588745	60.416607
857.727722	60.436168
857.866760	60.450131
858.005798	60.448693
858.144775	60.511231
858.283752	60.527064
858.422729	60.526503
858.561707	60.597645
858.700684	60.631199
858.839600	60.639191
858.978516	60.641671
859.117493	60.697507
859.256409	60.717130
859.395264	60.726583
859.534180	60.741825
859.673096	60.764791
859.811951	60.702806
859.950806	60.740481
860.089661	60.726924
860.228516	60.745213
860.367310	60.809653
860.506165	60.775050
860.644958	60.711235
860.783752	60.705357
860.922546	60.706430
861.061340	60.675754
861.200134	60.702583
861.338867	60.693738
861.477600	60.686092
861.616333	60.711163
