# Wavelength (nm)	Smoothed Intensity
299.383362	5.298820
299.552002	5.416411
299.720612	5.535701
299.889191	5.625052
300.057800	5.740845
300.226379	5.861490
300.394958	5.984803
300.563538	6.102152
300.732117	6.218311
300.900696	6.330433
301.069244	6.442222
301.237793	6.580153
301.406342	6.690453
301.574890	6.817965
301.743408	6.945066
301.911957	7.051536
302.080475	7.187354
302.248993	7.305560
302.417480	7.440129
302.585999	7.570068
302.754486	7.714697
302.922974	7.849788
303.091461	7.979565
303.259949	8.112999
303.428436	8.248695
303.596893	8.363590
303.765350	8.485956
303.933807	8.630570
304.102264	8.769019
304.270691	8.926596
304.439117	9.070956
304.607574	9.187515
304.776001	9.308001
304.944397	9.452894
305.112823	9.576593
305.281219	9.715801
305.449615	9.857857
305.618011	10.000496
305.786407	10.146851
305.954773	10.285659
306.123169	10.421022
306.291534	10.545555
306.459900	10.688246
306.628235	10.833013
306.796600	10.976832
306.964935	11.123165
307.133270	11.280090
307.301605	11.404765
307.469940	11.556590
307.638245	11.675734
307.806580	11.825390
307.974884	11.984671
308.143188	12.132442
308.311462	12.276465
308.479767	12.424089
308.648041	12.574599
308.816315	12.708819
308.984589	12.846838
309.152863	12.965300
309.321106	13.093366
309.489380	13.233869
309.657623	13.379751
309.825867	13.521271
309.994080	13.653099
310.162323	13.798001
310.330536	13.935572
310.498749	14.069180
310.666962	14.210604
310.835175	14.336720
311.003357	14.482735
311.171539	14.618831
311.339752	14.753508
311.507904	14.888429
311.676086	15.014934
311.844238	15.150752
312.012421	15.279592
312.180573	15.421184
312.348724	15.551934
312.516846	15.685955
312.684998	15.832828
312.853119	15.964504
313.021240	16.101192
313.189362	16.239643
313.357452	16.368992
313.525574	16.493631
313.693665	16.631504
313.861755	16.750138
314.029846	16.858312
314.197937	16.985902
314.365997	17.103081
314.534058	17.216405
314.702118	17.331611
314.870178	17.470013
315.038239	17.578922
315.206268	17.696084
315.374298	17.810855
315.542328	17.937074
315.710358	18.063463
315.878357	18.190921
316.046387	18.295124
316.214386	18.412139
316.382385	18.540815
316.550385	18.654565
316.718353	18.781343
316.886353	18.892587
317.054321	18.996558
317.222290	19.111456
317.390259	19.257743
317.558197	19.379099
317.726135	19.471847
317.894104	19.580161
318.062012	19.696090
318.229950	19.791560
318.397888	19.931077
318.565796	20.036607
318.733704	20.143152
318.901611	20.240089
319.069519	20.324667
319.237396	20.427544
319.405304	20.532263
319.573181	20.616120
319.741058	20.688692
319.908905	20.780120
320.076782	20.849420
320.244629	20.953300
320.412476	21.021669
320.580322	21.107660
320.748169	21.194590
320.915985	21.288346
321.083801	21.403615
321.251617	21.502738
321.419434	21.600416
321.587250	21.698220
321.755035	21.761655
321.922821	21.866469
322.090607	21.943148
322.258392	22.023465
322.426178	22.133693
322.593933	22.232711
322.761719	22.308927
322.929474	22.404003
323.097198	22.508241
323.264954	22.592244
323.432678	22.687631
323.600403	22.771364
323.768127	22.873301
323.935852	22.975263
324.103577	23.042003
324.271271	23.126803
324.438965	23.209944
324.606659	23.287729
324.774353	23.354483
324.942047	23.418500
325.109711	23.509662
325.277374	23.582019
325.445038	23.680261
325.612701	23.759946
325.780334	23.821255
325.947968	23.892819
326.115631	23.975808
326.283234	24.057100
326.450867	24.114572
326.618500	24.184045
326.786102	24.262751
326.953705	24.314668
327.121307	24.393671
327.288879	24.465527
327.456482	24.551064
327.624054	24.608319
327.791626	24.680819
327.959198	24.747520
328.126770	24.825549
328.294312	24.899655
328.461853	24.976017
328.629395	25.039738
328.796936	25.086272
328.964478	25.154442
329.131989	25.236266
329.299500	25.310342
329.467010	25.382558
329.634521	25.439193
329.802002	25.531565
329.969513	25.601971
330.136993	25.659415
330.304474	25.748734
330.471954	25.812994
330.639404	25.867375
330.806854	25.913828
330.974335	25.973929
331.141754	26.033242
331.309204	26.107469
331.476654	26.172515
331.644073	26.233259
331.811493	26.271041
331.978912	26.336806
332.146332	26.401229
332.313721	26.465956
332.481110	26.514475
332.648499	26.577544
332.815887	26.615252
332.983276	26.677308
333.150635	26.711100
333.317993	26.769328
333.485352	26.850668
333.652710	26.886347
333.820068	26.928246
333.987396	26.988173
334.154724	27.042262
334.322052	27.102896
334.489380	27.138915
334.656708	27.182293
334.824005	27.223127
334.991302	27.261547
335.158600	27.303020
335.325897	27.331925
335.493164	27.395317
335.660431	27.434341
335.827728	27.481038
335.994965	27.504802
336.162231	27.550340
336.329498	27.597424
336.496735	27.636766
336.663971	27.656229
336.831207	27.669976
336.998413	27.713891
337.165649	27.771901
337.332855	27.793019
337.500061	27.849639
337.667267	27.885914
337.834442	27.939052
338.001648	27.969111
338.168823	28.008807
338.335999	28.075489
338.503174	28.119207
338.670319	28.171793
338.837494	28.200203
339.004639	28.242102
339.171783	28.278314
339.338898	28.342499
339.506042	28.406735
339.673157	28.435029
339.840271	28.483919
340.007385	28.534570
340.174500	28.593657
340.341583	28.631903
340.508667	28.672178
340.675751	28.716042
340.842834	28.731399
341.009918	28.767305
341.176971	28.817735
341.344055	28.859603
341.511108	28.904183
341.678131	28.937112
341.845184	28.983404
342.012207	29.014605
342.179230	29.048814
342.346252	29.067759
342.513275	29.102974
342.680298	29.116878
342.847290	29.156604
343.014282	29.185977
343.181274	29.218098
343.348267	29.248398
343.515228	29.278813
343.682190	29.312786
343.849152	29.327705
344.016113	29.374772
344.183075	29.411139
344.350006	29.443014
344.516968	29.458783
344.683899	29.504170
344.850800	29.537192
345.017731	29.559946
345.184631	29.583216
345.351532	29.617756
345.518433	29.648128
345.685333	29.691570
345.852234	29.702200
346.019104	29.745946
346.185974	29.741290
346.352844	29.779875
346.519714	29.808649
346.686554	29.838624
346.853424	29.859484
347.020264	29.874049
347.187073	29.902836
347.353912	29.908603
347.520721	29.952178
347.687561	29.975717
347.854370	30.001418
348.021179	30.006678
348.187958	30.035618
348.354736	30.050784
348.521545	30.085260
348.688324	30.114377
348.855072	30.164242
349.021851	30.172126
349.188599	30.217271
349.355347	30.229083
349.522095	30.276263
349.688843	30.300325
349.855560	30.321956
350.022308	30.367736
350.189026	30.394667
350.355743	30.412049
350.522430	30.440199
350.689148	30.466474
350.855835	30.476265
351.022522	30.507956
351.189209	30.530495
351.355865	30.561528
351.522522	30.577965
351.689209	30.610010
351.855865	30.630210
352.022491	30.665443
352.189148	30.661421
352.355774	30.706189
352.522400	30.722294
352.689026	30.752862
352.855652	30.760952
353.022247	30.785873
353.188843	30.809692
353.355438	30.809622
353.522034	30.830559
353.688629	30.870981
353.855194	30.894779
354.021759	30.938740
354.188324	30.961132
354.354889	30.991461
354.521454	31.023795
354.687988	31.033181
354.854523	31.049712
355.021057	31.061360
355.187592	31.097658
355.354095	31.110009
355.520599	31.137166
355.687134	31.159205
355.853607	31.187541
356.020111	31.207103
356.186584	31.239127
356.353088	31.256099
356.519562	31.264692
356.686005	31.297174
356.852478	31.310908
357.018921	31.330380
357.185364	31.333802
357.351807	31.321527
357.518250	31.324769
357.684692	31.338447
357.851105	31.352183
358.017517	31.388358
358.183929	31.406665
358.350311	31.430738
358.516724	31.437569
358.683105	31.444256
358.849487	31.460756
359.015869	31.481931
359.182220	31.492041
359.348602	31.515521
359.514954	31.530143
359.681305	31.546337
359.847656	31.569237
360.013977	31.581449
360.180298	31.592633
360.346649	31.614675
360.512939	31.634180
360.679260	31.677685
360.845581	31.710732
361.011871	31.713479
361.178162	31.734264
361.344452	31.747560
361.510712	31.780984
361.677002	31.798154
361.843262	31.807794
362.009521	31.840707
362.175751	31.857837
362.342010	31.866751
362.508240	31.892699
362.674469	31.904972
362.840698	31.922341
363.006927	31.934034
363.173126	31.952134
363.339325	31.953525
363.505524	32.003713
363.671722	32.004128
363.837921	32.039389
364.004089	32.046332
364.170258	32.075519
364.336426	32.111874
364.502594	32.128650
364.668762	32.150931
364.834900	32.149753
365.001038	32.180500
365.167175	32.209756
365.333282	32.223682
365.499420	32.242688
365.665527	32.236870
365.831635	32.234485
365.997742	32.255741
366.163818	32.275534
366.329926	32.289665
366.496002	32.298972
366.662079	32.336833
366.828156	32.324375
366.994202	32.353313
367.160248	32.366014
367.326294	32.396375
367.492340	32.397665
367.658386	32.404683
367.824402	32.418459
367.990448	32.433604
368.156464	32.443790
368.322449	32.447548
368.488464	32.441691
368.654449	32.445485
368.820435	32.448428
368.986420	32.482287
369.152405	32.524512
369.318390	32.533445
369.484344	32.542982
369.650299	32.569407
369.816254	32.582975
369.982178	32.597291
370.148132	32.618548
370.314056	32.635317
370.479980	32.660749
370.645905	32.665019
370.811798	32.678949
370.977692	32.692591
371.143616	32.707781
371.309479	32.720252
371.475372	32.742414
371.641266	32.764383
371.807129	32.790550
371.972992	32.814985
372.138855	32.838583
372.304688	32.853354
372.470551	32.847323
372.636383	32.850616
372.802216	32.855443
372.968018	32.868055
373.133850	32.888363
373.299652	32.898785
373.465454	32.917839
373.631256	32.930908
373.797058	32.932496
373.962830	32.948727
374.128601	32.961583
374.294373	32.972305
374.460144	32.979766
374.625916	32.989886
374.791656	32.993337
374.957397	32.992196
375.123138	32.997423
375.288879	32.995637
375.454590	33.004498
375.620331	33.005611
375.786041	33.041760
375.951721	33.058037
376.117432	33.079539
376.283112	33.091555
376.448822	33.108876
376.614471	33.103709
376.780151	33.110609
376.945831	33.117911
377.111481	33.124825
377.277130	33.131258
377.442780	33.157136
377.608429	33.175696
377.774048	33.180255
377.939667	33.174111
378.105286	33.182861
378.270905	33.206563
378.436523	33.232387
378.602112	33.235445
378.767700	33.236496
378.933289	33.254739
379.098877	33.248026
379.264435	33.256756
379.429993	33.258595
379.595551	33.255993
379.761108	33.250693
379.926666	33.258200
380.092194	33.261732
380.257721	33.261905
380.423248	33.263467
380.588776	33.275312
380.754272	33.262831
380.919800	33.263978
381.085297	33.279890
381.250793	33.305935
381.416260	33.331384
381.581757	33.335428
381.747223	33.348355
381.912689	33.363483
382.078125	33.394326
382.243591	33.414149
382.409027	33.418802
382.574463	33.445330
382.739899	33.472186
382.905334	33.485340
383.070740	33.515410
383.236176	33.533611
383.401581	33.557009
383.566956	33.586203
383.732361	33.611350
383.897736	33.628558
384.063110	33.648761
384.228485	33.666346
384.393860	33.678395
384.559204	33.688498
384.724579	33.685004
384.889923	33.688289
385.055237	33.689989
385.220581	33.717326
385.385895	33.717385
385.551239	33.706409
385.716522	33.729112
385.881836	33.740566
386.047150	33.736345
386.212433	33.778655
386.377716	33.783915
386.542999	33.802168
386.708252	33.799514
386.873535	33.820581
387.038788	33.841478
387.204041	33.834613
387.369293	33.849367
387.534515	33.860554
387.699738	33.878482
387.864960	33.886731
388.030182	33.910107
388.195404	33.931253
388.360596	33.952267
388.525787	33.937031
388.690979	33.963281
388.856171	33.989023
389.021362	33.994418
389.186523	33.999466
389.351685	34.009379
389.516846	34.003817
389.682007	34.023759
389.847137	34.029055
390.012268	34.049498
390.177399	34.052015
390.342529	34.071804
390.507629	34.084466
390.672760	34.071388
390.837860	34.067334
391.002960	34.083937
391.168030	34.097882
391.333130	34.114815
391.498199	34.118550
391.663269	34.138485
391.828339	34.163351
391.993378	34.170290
392.158447	34.203271
392.323486	34.215063
392.488525	34.217727
392.653534	34.227086
392.818573	34.249696
392.983582	34.238323
393.148590	34.262419
393.313599	34.254258
393.478577	34.265561
393.643585	34.263095
393.808563	34.289716
393.973541	34.308747
394.138489	34.345254
394.303467	34.348024
394.468414	34.365660
394.633362	34.355514
394.798309	34.364052
394.963226	34.359588
395.128174	34.361502
395.293091	34.348146
395.458008	34.335574
395.622894	34.345513
395.787811	34.368273
395.952698	34.392221
396.117584	34.389138
396.282471	34.406266
396.447327	34.406988
396.612213	34.425856
396.777069	34.447243
396.941925	34.451346
397.106750	34.463800
397.271606	34.498011
397.436432	34.499596
397.601257	34.510498
397.766083	34.509891
397.930878	34.541951
398.095703	34.564158
398.260498	34.567634
398.425293	34.578212
398.590057	34.599970
398.754852	34.607964
398.919617	34.628252
399.084381	34.633860
399.249146	34.649116
399.413879	34.670746
399.578644	34.675964
399.743378	34.718524
399.908112	34.749458
400.072815	34.753825
400.237549	34.763858
400.402252	34.750096
400.566956	34.737785
400.731659	34.734403
400.896332	34.741753
401.061035	34.750923
401.225708	34.761363
401.390381	34.755034
401.555023	34.774224
401.719696	34.800589
401.884338	34.823100
402.048981	34.825125
402.213623	34.805560
402.378235	34.829108
402.542847	34.837552
402.707489	34.832447
402.872070	34.850631
403.036682	34.827261
403.201294	34.832793
403.365875	34.834006
403.530457	34.839334
403.695007	34.851465
403.859589	34.890952
404.024139	34.924960
404.188690	34.923853
404.353241	34.934876
404.517792	34.956418
404.682312	34.971300
404.846832	34.974232
405.011353	34.988083
405.175873	34.991640
405.340393	35.007907
405.504883	35.026185
405.669373	35.025585
405.833862	35.043275
405.998322	35.073649
406.162811	35.079221
406.327271	35.104729
406.491730	35.098412
406.656189	35.090504
406.820618	35.089112
406.985046	35.097612
407.149475	35.093177
407.313904	35.094709
407.478333	35.103996
407.642731	35.110922
407.807129	35.094469
407.971527	35.114289
408.135925	35.108411
408.300293	35.110416
408.464661	35.100858
408.629028	35.136162
408.793396	35.126544
408.957764	35.128168
409.122101	35.121096
409.286438	35.101208
409.450775	35.109077
409.615112	35.106490
409.779419	35.098248
409.943726	35.098197
410.108032	35.111279
410.272339	35.119458
410.436646	35.114801
410.600922	35.101005
410.765198	35.125090
410.929474	35.142349
411.093750	35.153370
411.257996	35.153201
411.422241	35.179694
411.586487	35.167274
411.750732	35.185749
411.914948	35.180677
412.079193	35.223196
412.243408	35.256497
412.407623	35.263671
412.571808	35.258350
412.735992	35.265746
412.900208	35.272029
413.064392	35.274749
413.228546	35.296371
413.392731	35.322641
413.556885	35.365685
413.721039	35.393880
413.885193	35.417246
414.049316	35.414131
414.213470	35.415968
414.377594	35.425042
414.541718	35.435084
414.705811	35.438804
414.869934	35.471800
415.034027	35.485504
415.198120	35.471879
415.362213	35.490161
415.526276	35.471316
415.690338	35.478940
415.854431	35.506222
416.018463	35.519546
416.182526	35.544536
416.346558	35.583081
416.510620	35.609661
416.674622	35.614983
416.838654	35.608113
417.002686	35.631833
417.166687	35.648504
417.330688	35.668949
417.494690	35.700791
417.658661	35.700782
417.822662	35.714982
417.986633	35.710308
418.150604	35.702249
418.314545	35.693659
418.478516	35.703265
418.642456	35.666778
418.806396	35.692698
418.970337	35.705883
419.134247	35.744294
419.298187	35.751991
419.462097	35.720612
419.625977	35.737159
419.789886	35.743831
419.953766	35.755819
420.117676	35.764926
420.281555	35.740462
420.445404	35.744630
420.609283	35.754457
420.773132	35.748391
420.936981	35.764297
421.100830	35.784106
421.264648	35.812833
421.428497	35.823328
421.592316	35.852597
421.756134	35.877489
421.919922	35.939051
422.083740	35.942865
422.247528	35.956060
422.411316	35.961309
422.575104	35.962877
422.738861	35.995846
422.902618	36.000036
423.066406	36.017698
423.230133	36.011475
423.393890	36.006145
423.557617	36.037645
423.721344	36.049051
423.885071	36.067474
424.048798	36.064745
424.212524	36.073867
424.376221	36.081120
424.539917	36.086179
424.703583	36.107121
424.867279	36.114443
425.030945	36.146411
425.194611	36.117335
425.358276	36.105318
425.521942	36.128825
425.685577	36.133420
425.849213	36.166244
426.012848	36.179133
426.176483	36.192447
426.340118	36.205617
426.503723	36.236480
426.667328	36.252560
426.830933	36.261685
426.994507	36.255736
427.158112	36.246352
427.321686	36.265992
427.485229	36.268298
427.648804	36.263396
427.812378	36.279196
427.975922	36.286612
428.139465	36.291976
428.302979	36.274027
428.466522	36.301392
428.630035	36.332269
428.793549	36.321450
428.957062	36.314554
429.120575	36.305011
429.284058	36.316935
429.447540	36.309117
429.611023	36.329691
429.774506	36.305903
429.937958	36.325833
430.101410	36.319730
430.264862	36.339614
430.428314	36.354831
430.591736	36.364765
430.755188	36.400325
430.918610	36.436531
431.082031	36.453604
431.245422	36.446518
431.408813	36.470256
431.572235	36.501236
431.735596	36.526024
431.898987	36.531532
432.062378	36.538176
432.225739	36.523362
432.389099	36.551564
432.552429	36.566778
432.715790	36.581081
432.879120	36.558132
433.042450	36.613770
433.205780	36.615879
433.369110	36.614438
433.532410	36.625064
433.695709	36.642872
433.859009	36.644621
434.022308	36.632171
434.185577	36.626231
434.348846	36.621159
434.512115	36.630118
434.675385	36.610137
434.838654	36.616035
435.001892	36.618255
435.165131	36.625724
435.328369	36.666562
435.491577	36.702433
435.654816	36.687265
435.818024	36.699281
435.981232	36.728760
436.144409	36.746675
436.307617	36.746915
436.470795	36.740110
436.633972	36.760303
436.797119	36.772262
436.960297	36.764528
437.123444	36.787385
437.286591	36.796346
437.449738	36.779828
437.612885	36.772533
437.776001	36.798250
437.939117	36.828537
438.102234	36.816687
438.265350	36.823146
438.428436	36.822464
438.591522	36.784632
438.754608	36.767149
438.917694	36.773257
439.080750	36.754523
439.243835	36.734606
439.406891	36.740293
439.569916	36.729382
439.732971	36.772552
439.895996	36.764104
440.059021	36.761260
440.222046	36.787595
440.385071	36.788159
440.548065	36.811746
440.711060	36.853119
440.874054	36.901608
441.037048	36.902403
441.200012	36.909136
441.363007	36.933665
441.525970	36.939620
441.688904	36.956566
441.851868	36.986167
442.014801	37.022092
442.177734	37.046228
442.340668	37.071072
442.503601	37.100352
442.666504	37.103616
442.829407	37.124933
442.992310	37.131384
443.155212	37.168957
443.318085	37.203679
443.480957	37.199145
443.643829	37.213358
443.806702	37.206852
443.969543	37.204988
444.132416	37.192928
444.295258	37.216418
444.458069	37.216781
444.620911	37.221528
444.783722	37.220691
444.946533	37.226982
445.109344	37.228927
445.272156	37.248067
445.434937	37.227015
445.597717	37.234119
445.760498	37.261564
445.923279	37.277590
446.086060	37.264142
446.248810	37.245906
446.411560	37.239682
446.574280	37.217601
446.737030	37.239220
446.899750	37.268615
447.062469	37.300354
447.225189	37.311654
447.387909	37.315335
447.550598	37.312940
447.713287	37.336729
447.875977	37.363346
448.038666	37.366928
448.201324	37.372480
448.363983	37.387178
448.526642	37.383320
448.689301	37.431771
448.851929	37.417234
449.014587	37.390007
449.177216	37.389698
449.339813	37.428662
449.502441	37.448311
449.665039	37.460086
449.827637	37.470954
449.990234	37.472433
450.152832	37.471758
450.315399	37.485339
450.477966	37.497028
450.640533	37.495770
450.803101	37.528558
450.965637	37.530339
451.128174	37.520018
451.290710	37.530941
451.453247	37.555792
451.615784	37.553076
451.778290	37.578061
451.940796	37.571020
452.103302	37.607850
452.265778	37.618146
452.428253	37.637425
452.590729	37.620441
452.753204	37.632162
452.915680	37.647538
453.078125	37.650081
453.240570	37.663640
453.403015	37.669221
453.565460	37.683566
453.727875	37.686049
453.890289	37.701023
454.052704	37.683510
454.215118	37.696901
454.377533	37.690548
454.539917	37.717866
454.702301	37.725922
454.864685	37.761399
455.027039	37.768339
455.189392	37.778176
455.351746	37.794544
455.514099	37.829840
455.676453	37.813467
455.838776	37.821321
456.001099	37.827567
456.163422	37.843862
456.325745	37.855534
456.488037	37.824619
456.650330	37.825883
456.812622	37.806797
456.974915	37.826985
457.137177	37.847726
457.299469	37.861335
457.461731	37.882687
457.623962	37.890351
457.786224	37.914853
457.948456	37.925767
458.110687	37.918749
458.272919	37.921925
458.435150	37.944536
458.597351	37.940611
458.759552	37.946481
458.921753	37.990484
459.083923	38.029566
459.246124	38.028568
459.408295	38.021984
459.570465	38.034798
459.732635	38.082848
459.894775	38.087618
460.056915	38.093943
460.219055	38.093171
460.381195	38.105746
460.543304	38.101987
460.705444	38.099405
460.867554	38.131339
461.029633	38.115520
461.191742	38.126129
461.353821	38.151973
461.515900	38.140299
461.677979	38.160128
461.840057	38.167596
462.002106	38.152962
462.164154	38.162046
462.326202	38.127625
462.488251	38.156009
462.650269	38.171849
462.812286	38.185196
462.974304	38.179150
463.136322	38.195092
463.298309	38.213271
463.460297	38.204992
463.622284	38.200684
463.784271	38.210192
463.946259	38.194559
464.108215	38.209040
464.270172	38.215191
464.432129	38.198422
464.594055	38.176009
464.755981	38.182680
464.917908	38.176077
465.079834	38.179411
465.241760	38.197419
465.403656	38.186885
465.565552	38.196082
465.727448	38.221689
465.889343	38.228004
466.051208	38.239464
466.213074	38.260774
466.374939	38.257749
466.536804	38.257484
466.698639	38.273343
466.860504	38.267535
467.022308	38.307318
467.184143	38.348488
467.345978	38.323339
467.507782	38.319192
467.669586	38.320829
467.831390	38.338672
467.993164	38.359600
468.154938	38.340169
468.316711	38.337025
468.478485	38.336798
468.640259	38.346305
468.802002	38.365170
468.963745	38.324535
469.125488	38.335403
469.287231	38.338641
469.448944	38.327607
469.610657	38.300922
469.772369	38.294755
469.934082	38.291549
470.095764	38.315580
470.257446	38.272485
470.419128	38.279993
470.580811	38.287393
470.742462	38.289955
470.904144	38.299311
471.065796	38.303937
471.227417	38.326139
471.389069	38.344445
471.550690	38.424793
471.712311	38.470082
471.873932	38.484013
472.035522	38.470622
472.197144	38.480334
472.358734	38.471080
472.520294	38.498899
472.681885	38.547018
472.843445	38.616203
473.005005	38.662509
473.166565	38.685688
473.328125	38.696224
473.489655	38.724410
473.651184	38.709870
473.812714	38.709386
473.974243	38.718504
474.135742	38.731813
474.297241	38.742186
474.458740	38.727622
474.620239	38.709652
474.781738	38.653377
474.943207	38.622933
475.104675	38.610260
475.266113	38.638380
475.427582	38.657501
475.589020	38.664371
475.750458	38.645533
475.911896	38.611865
476.073303	38.567773
476.234741	38.556767
476.396149	38.555469
476.557526	38.577630
476.718933	38.586573
476.880310	38.627796
477.041687	38.663763
477.203064	38.677323
477.364441	38.682643
477.525787	38.685758
477.687134	38.696158
477.848480	38.757381
478.009827	38.761873
478.171143	38.768819
478.332458	38.809611
478.493774	38.834446
478.655090	38.850058
478.816376	38.855047
478.977661	38.887376
479.138947	38.898122
479.300232	38.926467
479.461487	38.942136
479.622772	38.939970
479.784027	38.930403
479.945251	38.934914
480.106506	38.890308
480.267731	38.895160
480.428955	38.896194
480.590179	38.887861
480.751373	38.915881
480.912567	38.934310
481.073761	38.906395
481.234955	38.906339
481.396149	38.903890
481.557312	38.898167
481.718475	38.898887
481.879639	38.920978
482.040802	38.930950
482.201935	38.918791
482.363068	38.918339
482.524200	38.921302
482.685303	38.882721
482.846436	38.901643
483.007538	38.907658
483.168640	38.928334
483.329712	38.943025
483.490814	38.956497
483.651886	38.975815
483.812958	38.998713
483.973999	38.996228
484.135071	39.013872
484.296112	39.023708
484.457153	39.047615
484.618195	39.052396
484.779205	39.046832
484.940216	39.056664
485.101227	39.039759
485.262238	39.078906
485.423218	39.092166
485.584229	39.118837
485.745209	39.148524
485.906158	39.203707
486.067139	39.219565
486.228088	39.217659
486.389038	39.215610
486.549988	39.254253
486.710907	39.250611
486.871857	39.231887
487.032776	39.243192
487.193665	39.241750
487.354584	39.218337
487.515472	39.235814
487.676361	39.249441
487.837250	39.255977
487.998138	39.270776
488.158997	39.280896
488.319855	39.295640
488.480713	39.249540
488.641541	39.277453
488.802399	39.293025
488.963226	39.291864
489.124054	39.306105
489.284851	39.305503
489.445679	39.308749
489.606476	39.331663
489.767273	39.342453
489.928040	39.343295
490.088837	39.382997
490.249603	39.418356
490.410370	39.446330
490.571106	39.482908
490.731873	39.491386
490.892609	39.486197
491.053345	39.490239
491.214081	39.482692
491.374786	39.489882
491.535492	39.495006
491.696198	39.539661
491.856903	39.512804
492.017578	39.527576
492.178284	39.519907
492.338959	39.481838
492.499603	39.507840
492.660278	39.522446
492.820923	39.514702
492.981567	39.508653
493.142212	39.533943
493.302826	39.514855
493.463440	39.499029
493.624054	39.475456
493.784668	39.472245
493.945282	39.492157
494.105865	39.497898
494.266449	39.508183
494.427032	39.520311
494.587585	39.501044
494.748169	39.493177
494.908722	39.486385
495.069244	39.484467
495.229797	39.459236
495.390320	39.462333
495.550842	39.508043
495.711365	39.496143
495.871887	39.511951
496.032379	39.526786
496.192871	39.527701
496.353363	39.527650
496.513855	39.541583
496.674316	39.559936
496.834778	39.578039
496.995239	39.562481
497.155670	39.542042
497.316132	39.537836
497.476562	39.565992
497.636993	39.547276
497.797394	39.546723
497.957825	39.578667
498.118225	39.576594
498.278625	39.577210
498.438995	39.590604
498.599396	39.603380
498.759766	39.586857
498.920135	39.608384
499.080475	39.598676
499.240845	39.601513
499.401184	39.606428
499.561523	39.609726
499.721832	39.642303
499.882172	39.632783
500.042480	39.640940
500.202789	39.657330
500.363098	39.669862
500.523376	39.710506
500.683655	39.712352
500.843933	39.763535
501.004211	39.793817
501.164459	39.769047
501.324707	39.779884
501.484955	39.805861
501.645203	39.815257
501.805420	39.821020
501.965668	39.839469
502.125885	39.846110
502.286072	39.848316
502.446289	39.852371
502.606476	39.850767
502.766663	39.846794
502.926849	39.838389
503.087006	39.822763
503.247162	39.799176
503.407318	39.788397
503.567474	39.794654
503.727600	39.795253
503.887756	39.785936
504.047882	39.798093
504.207977	39.814764
504.368103	39.822903
504.528198	39.852693
504.688293	39.839717
504.848389	39.854273
505.008453	39.855292
505.168549	39.858641
505.328613	39.840405
505.488647	39.867942
505.648712	39.863841
505.808746	39.893604
505.968781	39.911136
506.128815	39.902997
506.288818	39.959130
506.448853	39.985803
506.608856	39.996102
506.768829	39.993799
506.928833	39.989086
507.088806	40.017701
507.248779	40.002411
507.408752	40.001649
507.568695	40.002403
507.728668	39.952828
507.888611	39.977076
508.048523	39.973141
508.208466	39.968571
508.368378	39.966680
508.528290	39.963635
508.688202	39.953604
508.848114	39.963686
509.007996	39.969736
509.167877	39.985480
509.327759	39.979139
509.487610	39.967987
509.647461	39.963596
509.807312	39.941908
509.967163	39.939715
510.127014	39.930908
510.286835	39.942060
510.446655	39.968184
510.606476	39.960401
510.766266	39.985511
510.926086	40.029742
511.085876	40.038952
511.245667	40.024496
511.405426	40.026911
511.565186	40.026416
511.724945	40.049002
511.884705	40.055965
512.044434	40.061878
512.204163	40.074219
512.363953	40.055872
512.523621	40.122407
512.683350	40.104351
512.843079	40.125913
513.002747	40.147136
513.162476	40.153740
513.322144	40.129024
513.481812	40.119596
513.641479	40.103026
513.801147	40.101261
513.960815	40.103871
514.120422	40.110174
514.280090	40.102903
514.439697	40.110177
514.599365	40.135073
514.758972	40.138868
514.918579	40.155992
515.078186	40.160879
515.237732	40.155160
515.397339	40.144624
515.556946	40.145098
515.716492	40.127424
515.876038	40.144091
516.035583	40.130305
516.195129	40.165543
516.354675	40.178175
516.514221	40.256320
516.673767	40.279907
516.833252	40.275097
516.992798	40.272121
517.152283	40.300557
517.311768	40.336289
517.471252	40.338948
517.630737	40.347464
517.790222	40.375040
517.949646	40.378143
518.109131	40.380583
518.268555	40.427361
518.427979	40.438507
518.587463	40.448417
518.746887	40.471780
518.906250	40.456571
519.065674	40.466495
519.225098	40.489320
519.384460	40.509768
519.543884	40.510384
519.703247	40.454163
519.862610	40.430596
520.021973	40.473426
520.181335	40.559352
520.340698	40.550680
520.500000	40.513833
520.659363	40.540450
520.818665	40.591800
520.977966	40.589477
521.137329	40.597781
521.296631	40.601525
521.455872	40.574611
521.615173	40.603829
521.774475	40.595628
521.933716	40.609599
522.093018	40.607403
522.252258	40.614481
522.411499	40.595336
522.570740	40.598494
522.729980	40.615703
522.889221	40.668672
523.048401	40.693917
523.207642	40.688319
523.366821	40.666813
523.526001	40.651436
523.685181	40.651066
523.844360	40.650336
524.003540	40.625922
524.162720	40.611905
524.321838	40.666573
524.481018	40.672618
524.640137	40.664241
524.799316	40.610670
524.958435	40.625728
525.117554	40.602540
525.276611	40.678107
525.435730	40.707747
525.594849	40.758629
525.753906	40.719487
525.912964	40.754711
526.072083	40.717849
526.231140	40.711231
526.390198	40.713142
526.549255	40.742749
526.708252	40.759123
526.867310	40.796717
527.026306	40.789827
527.185364	40.836804
527.344360	40.874665
527.503357	40.864651
527.662354	40.867688
527.821350	40.888457
527.980286	40.960235
528.139282	40.962244
528.298218	41.003649
528.457214	40.948476
528.616150	40.908227
528.775085	40.858080
528.934021	40.885531
529.092896	40.878575
529.251831	40.897954
529.410767	40.858174
529.569641	40.872017
529.728516	40.827249
529.887451	40.804272
530.046326	40.798950
530.205200	40.819620
530.364014	40.734759
530.522888	40.732547
530.681702	40.742756
530.840576	40.720239
530.999390	40.702965
531.158203	40.683609
531.317017	40.698824
531.475830	40.681446
531.634644	40.676745
531.793457	40.685520
531.952209	40.723387
532.110962	40.741364
532.269775	40.750933
532.428528	40.743469
532.587280	40.772176
532.746033	40.755953
532.904724	40.791871
533.063477	40.832279
533.222229	40.818515
533.380920	40.857583
533.539612	40.929942
533.698303	40.893610
533.856995	40.839707
534.015686	40.903064
534.174377	40.921754
534.333008	40.961819
534.491699	40.953669
534.650330	40.947480
534.808960	40.961229
534.967651	41.017360
535.126221	41.035002
535.284851	41.038335
535.443481	41.000296
535.602112	41.029178
535.760681	41.093766
535.919250	41.126381
536.077881	41.110674
536.236450	41.128858
536.395020	41.156873
536.553528	41.141172
536.712097	41.111647
536.870667	41.179903
537.029175	41.242561
537.187683	41.215508
537.346191	41.240385
537.504700	41.180918
537.663208	41.172504
537.821716	41.182213
537.980225	41.195772
538.138672	41.166048
538.297180	41.169950
538.455627	41.185091
538.614075	41.218839
538.772522	41.231862
538.930969	41.187956
539.089417	41.157443
539.247803	41.158122
539.406250	41.205558
539.564636	41.246066
539.723083	41.270129
539.881470	41.239892
540.039856	41.219055
540.198242	41.150901
540.356567	41.187662
540.514954	41.142896
540.673279	41.210554
540.831665	41.204920
540.989990	41.185055
541.148315	41.171590
541.306641	41.166715
541.464966	41.145245
541.623291	41.153023
541.781555	41.171559
541.939880	41.204216
542.098145	41.223237
542.256409	41.264724
542.414673	41.278185
542.572937	41.247798
542.731201	41.193443
542.889465	41.149159
543.047668	41.171635
543.205933	41.178010
543.364136	41.260272
543.522339	41.238729
543.680542	41.226144
543.838745	41.242706
543.996948	41.266291
544.155090	41.327433
544.313293	41.354234
544.471436	41.380555
544.629639	41.438891
544.787781	41.420857
544.945923	41.413244
545.104065	41.354672
545.262146	41.392381
545.420288	41.388275
545.578369	41.357167
545.736511	41.353897
545.894592	41.432663
546.052673	41.479477
546.210754	41.517714
546.368835	41.475650
546.526917	41.461556
546.684937	41.468555
546.843018	41.516693
547.001038	41.501197
547.159058	41.524842
547.317078	41.518413
547.475098	41.527440
547.633118	41.515781
547.791138	41.461056
547.949097	41.433525
548.107117	41.479115
548.265076	41.491582
548.423035	41.438921
548.580994	41.437313
548.738953	41.437837
548.896912	41.472608
549.054810	41.450267
549.212769	41.454097
549.370667	41.427236
549.528625	41.472794
549.686523	41.504909
549.844421	41.455160
550.002319	41.473170
550.160156	41.417092
550.318054	41.421619
550.475891	41.463641
550.633789	41.483566
550.791626	41.477138
550.949463	41.556423
551.107300	41.611493
551.265137	41.592494
551.422974	41.580826
551.580750	41.613267
551.738586	41.672499
551.896362	41.684060
552.054138	41.573317
552.211914	41.563593
552.369690	41.553925
552.527466	41.595401
552.685242	41.596962
552.842957	41.615879
553.000671	41.713515
553.158447	41.730901
553.316162	41.801331
553.473877	41.891997
553.631592	41.879027
553.789307	41.869784
553.946960	41.883907
554.104675	41.833281
554.262329	41.830779
554.419983	41.891981
554.577637	42.003360
554.735291	42.028259
554.892944	41.929390
555.050598	42.003756
555.208252	42.100004
555.365845	42.052809
555.523438	42.067567
555.681030	42.142356
555.838684	42.100373
555.996216	41.978039
556.153809	41.964585
556.311401	41.931585
556.468994	41.939740
556.626526	41.887876
556.784058	41.897660
556.941589	41.930073
557.099121	41.894279
557.256653	41.931029
557.414185	41.915321
557.571716	41.899296
557.729187	41.868951
557.886719	41.915044
558.044189	41.913399
558.201660	41.859123
558.359131	41.812750
558.516602	41.875985
558.674011	41.745947
558.831482	41.705093
558.988892	41.828159
559.146362	41.863013
559.303772	41.884424
559.461182	41.896764
559.618591	41.824724
559.776001	41.856725
559.933350	41.795864
560.090759	41.764817
560.248108	41.798114
560.405518	41.780319
560.562866	41.828896
560.720215	41.721240
560.877563	41.719007
561.034851	41.676875
561.192200	41.774050
561.349548	41.779371
561.506836	41.830917
561.664124	41.913246
561.821411	42.104861
561.978699	42.078382
562.135986	41.967138
562.293274	42.031454
562.450500	42.059776
562.607788	42.028386
562.765015	42.016831
562.922241	42.029568
563.079468	42.069891
563.236694	42.062329
563.393921	42.112861
563.551147	42.130693
563.708313	42.078043
563.865540	42.070686
564.022705	41.931695
564.179871	41.982951
564.337036	41.866141
564.494202	41.966143
564.651367	42.033361
564.808472	41.926032
564.965637	41.817186
565.122742	41.887132
565.279846	41.881114
565.436951	41.864363
565.594055	41.786742
565.751160	41.879885
565.908264	41.911361
566.065308	41.823193
566.222412	41.880911
566.379456	41.868542
566.536499	41.858537
566.693542	41.834842
566.850586	41.887571
567.007629	41.997261
567.164673	42.063743
567.321655	42.060538
567.478699	42.210354
567.635681	42.116896
567.792664	42.112575
567.949646	42.082853
568.106628	42.138987
568.263611	42.103365
568.420532	42.120421
568.577515	42.114928
568.734436	42.203210
568.891357	42.141138
569.048279	42.140848
569.205200	42.104678
569.362122	42.169912
569.518982	42.232582
569.675903	42.275910
569.832764	42.349829
569.989685	42.326684
570.146545	42.290384
570.303406	42.367579
570.460266	42.359919
570.617065	42.350373
570.773926	42.309412
570.930786	42.262317
571.087585	42.361818
571.244385	42.369442
571.401184	42.446252
571.557983	42.498500
571.714783	42.576645
571.871582	42.567976
572.028320	42.612396
572.185120	42.712594
572.341858	42.807459
572.498596	42.721289
572.655334	42.618010
572.812073	42.550908
572.968811	42.533534
573.125488	42.480191
573.282227	42.582388
573.438904	42.606956
573.595581	42.574120
573.752258	42.535195
573.908936	42.674559
574.065613	42.701624
574.222290	42.714413
574.378906	42.708657
574.535583	42.627253
574.692200	42.659667
574.848816	42.589545
575.005432	42.651615
575.162048	42.624646
575.318665	42.576036
575.475281	42.600223
575.631836	42.543540
575.788452	42.615967
575.945007	42.692108
576.101562	42.679994
576.258118	42.751419
576.414673	42.682550
576.571167	42.784639
576.727722	42.824082
576.884216	42.817130
577.040771	42.827820
577.197266	42.828696
577.353760	42.842392
577.510254	42.875199
577.666748	42.853908
577.823181	42.846452
577.979675	42.899676
578.136108	42.840653
578.292542	42.875452
578.449036	42.903393
578.605469	42.841682
578.761841	42.936827
578.918274	42.974421
579.074707	42.976317
579.231079	42.973540
579.387451	42.962701
579.543884	42.980510
579.700256	42.902335
579.856628	42.900994
580.012939	42.993210
580.169312	42.950892
580.325684	42.932356
580.481995	42.939478
580.638306	42.993710
580.794617	42.998985
580.950928	42.989155
581.107239	43.044285
581.263550	43.071772
581.419800	43.102089
581.576111	43.118328
581.732361	43.181863
581.888611	43.195646
582.044861	43.186014
582.201111	43.188777
582.357361	43.198777
582.513611	43.235325
582.669800	43.207605
582.826050	43.246737
582.982239	43.296456
583.138428	43.248943
583.294617	43.266994
583.450806	43.283547
583.606995	43.277988
583.763123	43.232093
583.919312	43.318243
584.075439	43.379688
584.231567	43.337270
584.387695	43.307490
584.543823	43.306957
584.699951	43.304337
584.856018	43.287657
585.012146	43.260503
585.168213	43.322701
585.324341	43.344646
585.480408	43.385098
585.636475	43.367561
585.792480	43.421493
585.948547	43.403217
586.104614	43.320137
586.260620	43.349912
586.416626	43.327792
586.572693	43.334873
586.728699	43.275011
586.884705	43.285421
587.040649	43.241415
587.196655	43.195967
587.352600	43.178917
587.508606	43.214534
587.664551	43.202743
587.820496	43.196239
587.976440	43.225632
588.132385	43.230221
588.288330	43.245850
588.444214	43.220791
588.600159	43.237733
588.756042	43.282034
588.911926	43.249686
589.067810	43.159322
589.223694	43.198895
589.379578	43.178134
589.535400	43.169307
589.691284	43.169241
589.847107	43.133561
590.002930	43.142607
590.158752	43.183027
590.314575	43.216904
590.470398	43.257418
590.626221	43.279044
590.781982	43.348637
590.937805	43.368441
591.093567	43.343044
591.249329	43.362612
591.405090	43.264395
591.560852	43.288966
591.716614	43.282956
591.872375	43.253575
592.028076	43.271891
592.183777	43.350874
592.339539	43.407734
592.495239	43.425948
592.650940	43.504352
592.806580	43.523048
592.962280	43.642081
593.117920	43.600518
593.273621	43.642646
593.429260	43.636386
593.584900	43.652869
593.740540	43.649349
593.896179	43.607623
594.051819	43.594828
594.207397	43.648925
594.363037	43.644074
594.518616	43.789765
594.674194	43.846397
594.829773	43.848270
594.985352	43.888168
595.140930	43.841519
595.296509	43.868049
595.452026	43.826539
595.607605	43.763019
595.763123	43.734257
595.918640	43.777702
596.074158	43.719284
596.229675	43.740909
596.385132	43.768470
596.540649	43.726855
596.696106	43.751281
596.851624	43.734122
597.007080	43.662426
597.162537	43.757336
597.317993	43.752944
597.473389	43.773047
597.628845	43.679590
597.784241	43.596140
597.939697	43.624357
598.095093	43.585861
598.250488	43.679947
598.405884	43.721281
598.561279	43.818193
598.716614	43.863348
598.872009	43.863124
599.027344	43.852313
599.182739	43.966648
599.338074	43.985733
599.493408	43.888718
599.648682	43.916690
599.804016	43.908462
599.959351	43.935670
600.114624	43.986133
600.269958	43.964752
600.425232	43.974178
600.580505	43.986526
600.735779	43.970998
600.890991	43.962846
601.046265	43.945973
601.201477	43.991549
601.356750	43.978419
601.511963	43.906385
601.667175	43.802508
601.822388	43.830479
601.977600	43.861445
602.132812	43.864955
602.287964	43.742540
602.443115	43.841046
602.598328	43.854312
602.753479	43.872251
602.908630	43.847259
603.063782	43.690965
603.218872	43.715093
603.374023	43.689048
603.529114	43.673976
603.684265	43.703510
603.839355	43.783142
603.994446	43.812628
604.149536	43.802241
604.304626	43.843791
604.459656	43.885917
604.614746	43.887537
604.769775	43.903609
604.924805	43.936222
605.079834	43.909262
605.234863	43.909309
605.389893	43.951074
605.544922	43.896605
605.699890	43.986951
605.854919	43.955846
606.009888	43.933913
606.164856	44.024744
606.319824	44.020378
606.474792	43.957806
606.629761	43.894266
606.784668	43.801340
606.939636	43.771114
607.094543	43.759815
607.249451	43.769219
607.404358	43.730848
607.559265	43.740314
607.714172	43.769858
607.869080	43.798290
608.023926	43.828387
608.178772	43.891037
608.333679	43.864746
608.488525	43.902819
608.643372	43.817889
608.798218	43.805653
608.953003	43.812813
609.107849	43.867271
609.262634	43.918224
609.417419	43.989474
609.572266	44.114386
609.726990	44.154394
609.881775	44.175526
610.036560	44.152020
610.191345	44.169428
610.346069	44.207063
610.500793	44.286065
610.655579	44.306570
610.810303	44.308713
610.964966	44.256084
611.119690	44.241118
611.274414	44.160778
611.429077	44.212831
611.583801	44.270044
611.738464	44.338664
611.893127	44.285770
612.047791	44.353961
612.202454	44.350395
612.357056	44.365716
612.511719	44.319597
612.666321	44.215729
612.820923	44.264512
612.975586	44.363930
613.130188	44.393895
613.284729	44.294457
613.439331	44.154893
613.593933	44.130740
613.748474	43.995053
613.903015	43.996818
614.057556	44.132805
614.212097	44.178073
614.366638	44.221222
614.521179	44.283680
614.675720	44.192207
614.830200	44.255612
614.984680	44.301880
615.139221	44.363978
615.293701	44.392414
615.448181	44.346007
615.602600	44.325552
615.757080	44.349351
615.911499	44.284974
616.065979	44.305271
616.220398	44.302761
616.374817	44.467411
616.529236	44.632195
616.683655	44.668758
616.838074	44.804858
616.992432	44.814337
617.146851	44.760018
617.301208	44.660703
617.455566	44.612010
617.609924	44.571857
617.764282	44.582174
617.918579	44.545734
618.072937	44.598608
618.227234	44.524485
618.381592	44.525060
618.535889	44.471309
618.690186	44.535242
618.844482	44.543058
618.998718	44.585256
619.153015	44.539898
619.307312	44.624839
619.461548	44.535384
619.615784	44.545422
619.770020	44.460112
619.924255	44.463297
620.078491	44.535780
620.232666	44.618308
620.386902	44.649776
620.541077	44.669855
620.695251	44.668605
620.849487	44.747976
621.003601	44.813131
621.157776	44.749538
621.311951	44.776527
621.466064	44.739118
621.620239	44.841721
621.774353	44.887845
621.928467	44.893455
622.082581	44.957726
622.236694	44.932502
622.390808	44.856786
622.544861	44.923033
622.698975	44.868494
622.853027	44.931834
623.007080	44.897411
623.161133	44.848223
623.315186	44.774638
623.469238	44.821804
623.623230	44.879277
623.777283	44.882625
623.931274	44.815647
624.085266	44.806303
624.239258	44.834645
624.393250	44.870620
624.547241	44.919894
624.701233	44.926956
624.855164	44.906188
625.009094	44.968546
625.163086	44.950613
625.317017	44.945554
625.470947	44.916302
625.624817	44.872068
625.778748	44.866460
625.932617	44.901988
626.086548	44.907997
626.240417	44.915850
626.394287	44.899401
626.548157	44.907456
626.702026	44.958401
626.855896	44.891132
627.009705	44.969966
627.163574	44.900052
627.317383	44.898271
627.471191	44.916445
627.625000	44.926333
627.778809	44.938431
627.932556	44.884413
628.086365	44.924358
628.240112	44.861200
628.393921	44.878854
628.547668	44.934730
628.701416	44.944593
628.855164	44.938635
629.008850	44.941206
629.162598	44.986381
629.316284	44.995075
629.470032	44.993613
629.623718	44.979152
629.777405	44.974313
629.931091	45.070237
630.084778	45.158277
630.238403	45.213154
630.392090	45.197923
630.545715	45.138133
630.699341	45.143897
630.852966	45.073261
631.006592	45.046624
631.160217	44.959797
631.313843	45.034459
631.467407	45.040190
631.620972	45.113381
631.774597	45.170254
631.928162	45.164548
632.081726	45.115504
632.235229	45.081059
632.388794	45.029877
632.542358	45.051990
632.695862	45.058745
632.849365	45.010973
633.002869	44.971240
633.156372	44.790240
633.309875	44.796760
633.463379	44.779589
633.616821	44.848539
633.770325	44.791599
633.923767	44.809188
634.077209	44.894474
634.230652	44.974567
634.384094	44.952740
634.537537	44.932191
634.690918	44.851250
634.844299	44.858580
634.997742	44.888255
635.151123	44.839939
635.304504	44.870999
635.457886	44.893085
635.611206	44.841854
635.764587	44.820792
635.917908	44.806393
636.071289	44.819842
636.224609	44.914346
636.377930	44.919797
636.531250	44.966447
636.684570	44.936908
636.837830	45.032942
636.991150	45.047314
637.144409	45.098606
637.297668	44.974850
637.450928	44.967946
637.604187	45.030929
637.757446	45.086038
637.910645	45.043741
638.063904	45.090787
638.217102	45.163167
638.370300	45.149638
638.523499	45.163195
638.676697	45.210740
638.829895	45.223688
638.983093	45.294951
639.136230	45.304681
639.289429	45.223318
639.442566	45.159523
639.595703	45.135554
639.748840	45.157016
639.901978	45.135465
640.055054	45.196281
640.208191	45.103224
640.361267	45.207239
640.514343	45.216082
640.667419	45.241527
640.820496	45.251377
640.973572	45.313095
641.126648	45.295224
641.279663	45.270220
641.432739	45.249126
641.585754	45.270663
641.738770	45.260494
641.891785	45.364987
642.044800	45.286188
642.197754	45.297986
642.350769	45.366472
642.503723	45.427282
642.656738	45.471891
642.809692	45.375188
642.962646	45.325176
643.115540	45.322187
643.268494	45.325453
643.421448	45.398607
643.574341	45.432617
643.727234	45.473939
643.880127	45.532002
644.033020	45.581441
644.185913	45.576420
644.338806	45.601713
644.491699	45.651014
644.644531	45.651849
644.797363	45.704575
644.950195	45.642408
645.103027	45.678882
645.255859	45.661889
645.408691	45.664858
645.561462	45.691407
645.714294	45.687278
645.867065	45.762750
646.019836	45.778657
646.172607	45.757127
646.325378	45.800890
646.478149	45.707531
646.630859	45.728859
646.783630	45.696768
646.936340	45.666017
647.089050	45.603034
647.241760	45.586236
647.394470	45.603137
647.547180	45.625213
647.699829	45.585350
647.852539	45.601370
648.005188	45.598118
648.157837	45.636714
648.310486	45.644408
648.463135	45.648227
648.615784	45.636244
648.768433	45.645913
648.921021	45.651866
649.073608	45.684945
649.226257	45.749442
649.378845	45.808507
649.531372	45.870315
649.683960	45.825333
649.836548	45.795431
649.989075	45.725505
650.141663	45.730997
650.294189	45.811311
650.446716	45.799511
650.599243	45.815868
650.751709	45.845007
650.904236	45.849184
651.056702	45.826606
651.209229	45.841812
651.361694	45.910790
651.514160	45.927062
651.666626	45.975746
651.819092	45.972976
651.971497	45.992317
652.123962	45.991948
652.276367	45.999886
652.428772	46.010457
652.581177	46.008168
652.733582	46.031728
652.885986	46.046212
653.038330	46.104548
653.190735	46.151354
653.343079	46.092829
653.495422	46.117782
653.647827	46.119129
653.800110	46.153726
653.952454	46.100761
654.104797	46.153343
654.257080	46.106421
654.409424	46.093606
654.561707	46.113647
654.713989	46.050906
654.866272	46.058389
655.018555	46.047948
655.170776	46.044130
655.323059	46.025450
655.475281	45.964051
655.627502	45.940978
655.779724	45.948998
655.931946	45.969813
656.084167	45.938222
656.236328	45.905328
656.388550	45.913103
656.540710	45.864897
656.692871	45.801609
656.845093	45.830556
656.997192	45.888563
657.149353	45.785553
657.301514	45.835355
657.453613	45.739090
657.605774	45.717835
657.757874	45.705641
657.909973	45.735434
658.062073	45.687438
658.214172	45.637151
658.366211	45.637595
658.518311	45.641045
658.670349	45.653029
658.822388	45.709788
658.974426	45.705630
659.126465	45.727271
659.278503	45.740159
659.430481	45.758883
659.582520	45.752554
659.734497	45.764585
659.886475	45.766542
660.038452	45.673230
660.190430	45.742638
660.342407	45.747226
660.494385	45.807786
660.646301	45.795339
660.798279	45.830367
660.950195	45.760376
661.102112	45.821113
661.254028	45.943587
661.405884	45.935412
661.557800	45.990647
661.709717	45.977237
661.861572	45.930851
662.013428	45.928859
662.165283	45.984569
662.317139	45.969187
662.468994	45.991418
662.620789	46.071980
662.772644	46.079024
662.924438	46.064866
663.076233	46.160237
663.228027	46.123221
663.379822	46.133529
663.531616	46.110201
663.683411	46.134479
663.835144	46.149383
663.986877	46.212376
664.138611	46.172470
664.290344	46.145916
664.442078	46.125253
664.593811	46.084332
664.745544	46.082080
664.897217	46.077678
665.048889	46.079209
665.200623	46.047084
665.352295	46.050623
665.503967	46.035759
665.655579	45.981215
665.807251	46.019969
665.958862	46.051270
666.110535	46.093182
666.262146	46.126961
666.413757	46.075755
666.565369	46.169365
666.716919	46.102417
666.868530	46.052666
667.020081	46.053398
667.171692	46.020185
667.323242	45.959660
667.474792	45.976259
667.626343	46.002573
667.777832	46.005179
667.929382	46.047947
668.080872	46.038009
668.232422	46.011152
668.383911	46.032424
668.535400	46.069718
668.686890	46.144810
668.838318	46.149781
668.989807	46.108355
669.141235	46.085902
669.292725	46.098330
669.444153	46.102523
669.595581	46.067988
669.747009	46.063788
669.898376	46.092736
670.049805	46.046232
670.201172	46.146035
670.352539	46.178975
670.503967	46.150604
670.655273	46.149865
670.806641	46.206913
670.958008	46.181035
671.109375	46.184501
671.260681	46.205021
671.411987	46.280527
671.563293	46.244568
671.714600	46.214864
671.865906	46.147478
672.017212	46.166256
672.168457	46.149201
672.319763	46.135710
672.471008	46.166144
672.622253	46.131339
672.773499	46.250436
672.924744	46.274909
673.075928	46.310750
673.227173	46.295347
673.378357	46.275220
673.529541	46.339777
673.680786	46.309260
673.831909	46.277458
673.983093	46.350479
674.134277	46.396178
674.285400	46.378828
674.436584	46.299392
674.587708	46.272403
674.738831	46.262659
674.889954	46.300643
675.041077	46.294713
675.192139	46.319248
675.343262	46.336829
675.494324	46.359319
675.645386	46.408629
675.796448	46.379851
675.947510	46.355644
676.098572	46.356058
676.249634	46.347898
676.400635	46.394040
676.551636	46.384621
676.702698	46.404924
676.853699	46.443913
677.004639	46.376576
677.155640	46.355411
677.306641	46.368626
677.457581	46.379435
677.608521	46.452095
677.759521	46.466063
677.910461	46.522548
678.061401	46.522424
678.212280	46.555453
678.363220	46.578819
678.514099	46.549574
678.664978	46.553800
678.815918	46.578142
678.966797	46.649842
679.117615	46.663996
679.268494	46.684894
679.419373	46.670373
679.570190	46.749617
679.721008	46.746719
679.871826	46.692704
680.022644	46.669949
680.173462	46.675969
680.324280	46.731996
680.475037	46.732453
680.625854	46.774059
680.776611	46.805770
680.927368	46.761619
681.078125	46.764981
681.228882	46.703348
681.379639	46.676590
681.530334	46.705839
681.681030	46.679016
681.831787	46.649348
681.982483	46.637256
682.133179	46.630705
682.283813	46.635113
682.434509	46.664708
682.585205	46.579633
682.735840	46.627502
682.886475	46.682376
683.037109	46.783441
683.187744	46.785666
683.338379	46.804692
683.488953	46.813446
683.639587	46.716153
683.790161	46.685221
683.940735	46.677628
684.091309	46.705119
684.241882	46.745620
684.392456	46.778059
684.543030	46.777240
684.693542	46.742827
684.844055	46.712647
684.994568	46.684754
685.145081	46.721285
685.295593	46.738590
685.446106	46.726915
685.596619	46.748361
685.747070	46.678845
685.897522	46.657376
686.047974	46.591076
686.198425	46.589249
686.348877	46.595764
686.499329	46.617157
686.649719	46.659638
686.800171	46.704106
686.950562	46.741671
687.100952	46.716123
687.251343	46.702701
687.401733	46.671643
687.552124	46.660963
687.702454	46.713432
687.852783	46.720684
688.003174	46.774594
688.153503	46.731872
688.303833	46.707168
688.454102	46.687917
688.604431	46.689177
688.754700	46.718441
688.905029	46.737333
689.055298	46.791252
689.205566	46.805271
689.355835	46.761443
689.506104	46.736219
689.656311	46.763091
689.806580	46.741145
689.956787	46.738557
690.106995	46.788494
690.257202	46.720345
690.407410	46.808647
690.557617	46.798143
690.707764	46.826192
690.857971	46.851332
691.008118	46.816483
691.158264	46.823036
691.308411	46.842392
691.458557	46.872039
691.608704	46.894110
691.758789	46.951029
691.908936	46.968001
692.059021	46.924045
692.209106	46.934758
692.359192	46.954896
692.509277	46.970192
692.659302	46.942372
692.809387	46.940360
692.959412	46.952151
693.109436	46.942899
693.259460	47.061765
693.409485	47.002190
693.559509	47.028934
693.709534	47.003505
693.859497	47.051447
694.009521	47.008196
694.159485	47.025435
694.309448	47.033286
694.459412	47.053086
694.609314	47.028623
694.759277	46.993048
694.909180	46.996050
695.059143	47.006728
695.209045	47.034321
695.358948	46.952602
695.508850	46.970958
695.658691	46.981486
695.808594	46.981883
695.958435	46.961124
696.108337	46.969718
696.258179	46.941152
696.408020	46.992565
696.557800	46.948800
696.707642	47.020895
696.857483	46.999190
697.007263	47.023444
697.157043	47.077733
697.306824	47.100024
697.456604	47.132779
697.606384	47.125233
697.756165	47.165332
697.905884	47.155012
698.055603	47.092717
698.205383	47.063196
698.355103	47.165116
698.504822	47.228376
698.654480	47.257960
698.804199	47.338412
698.953857	47.360752
699.103577	47.362102
699.253235	47.357917
699.402893	47.307404
699.552551	47.350462
699.702148	47.327641
699.851807	47.340713
700.001404	47.368923
700.151062	47.328908
700.300659	47.297322
700.450256	47.230187
700.599792	47.275840
700.749390	47.234240
700.898987	47.234818
701.048523	47.276306
701.198059	47.274165
701.347595	47.286164
701.497131	47.195404
701.646667	47.172638
701.796204	47.083201
701.945679	47.089091
702.095154	47.041159
702.244690	47.044122
702.394165	47.075896
702.543640	47.079969
702.693054	47.066674
702.842529	47.076585
702.991943	47.068895
703.141418	47.029555
703.290833	47.019380
703.440247	47.049382
703.589661	47.077482
703.739014	47.094245
703.888428	47.096270
704.037781	47.135604
704.187134	47.119224
704.336487	46.998936
704.485840	47.007643
704.635193	47.008181
704.784546	46.976429
704.933838	46.984243
705.083191	47.041036
705.232483	46.973256
705.381775	46.955022
705.531067	46.876532
705.680359	46.921315
705.829590	46.951048
705.978882	46.950504
706.128113	46.998609
706.277344	47.035064
706.426575	47.064874
706.575806	47.013751
706.725037	47.044417
706.874207	47.053057
707.023438	47.051653
707.172607	47.126586
707.321777	47.224680
707.470947	47.238378
707.620117	47.261470
707.769287	47.346359
707.918396	47.331347
708.067505	47.325774
708.216675	47.405922
708.365784	47.412657
708.514893	47.476058
708.663940	47.388131
708.813049	47.369492
708.962097	47.386750
709.111206	47.321327
709.260254	47.278696
709.409302	47.213854
709.558350	47.237919
709.707397	47.185936
709.856384	47.189965
710.005432	47.227504
710.154419	47.194431
710.303406	47.195581
710.452393	47.198943
710.601379	47.214372
710.750305	47.172578
710.899292	47.200532
711.048218	47.173522
711.197205	47.160876
711.346130	47.172066
711.495056	47.185458
711.643921	47.202708
711.792847	47.163416
711.941711	47.153941
712.090637	47.263856
712.239502	47.304786
712.388367	47.300134
712.537231	47.328841
712.686096	47.367316
712.834900	47.381379
712.983765	47.347777
713.132568	47.323331
713.281372	47.314261
713.430176	47.329239
713.578979	47.388585
713.727722	47.430084
713.876526	47.383343
714.025269	47.434026
714.174072	47.419097
714.322815	47.383796
714.471558	47.406490
714.620239	47.422258
714.768982	47.469845
714.917664	47.487137
715.066406	47.416714
715.215088	47.444944
715.363770	47.509550
715.512451	47.456782
715.661072	47.438522
715.809753	47.443065
715.958374	47.451024
716.107056	47.460193
716.255676	47.453795
716.404297	47.470701
716.552917	47.472466
716.701477	47.448772
716.850098	47.461890
716.998657	47.449745
717.147217	47.455606
717.295776	47.486965
717.444336	47.476012
717.592896	47.497138
717.741455	47.486749
717.889954	47.494490
718.038513	47.563114
718.187012	47.567553
718.335510	47.552200
718.484009	47.576728
718.632446	47.580032
718.780945	47.617837
718.929382	47.619299
719.077881	47.607778
719.226318	47.644131
719.374756	47.612169
719.523132	47.526669
719.671570	47.526686
719.820007	47.569474
719.968384	47.541207
720.116760	47.548286
720.265137	47.556056
720.413513	47.574710
720.561890	47.549864
720.710205	47.556270
720.858582	47.582353
721.006897	47.561748
721.155212	47.576003
721.303528	47.579896
721.451843	47.599603
721.600159	47.654222
721.748413	47.629556
721.896729	47.623683
722.044983	47.661983
722.193237	47.643460
722.341492	47.648832
722.489746	47.711512
722.637939	47.715102
722.786194	47.760348
722.934387	47.779124
723.082581	47.787946
723.230774	47.791705
723.378967	47.808789
723.527161	47.838258
723.675354	47.849574
723.823486	47.824938
723.971619	47.830105
724.119751	47.850934
724.267883	47.880336
724.416016	47.875206
724.564148	47.883925
724.712219	47.864539
724.860352	47.917828
725.008423	47.929181
725.156494	47.917173
725.304565	47.917660
725.452637	47.887793
725.600647	47.935500
725.748718	47.891681
725.896729	47.903643
726.044739	47.927962
726.192749	47.953475
726.340759	47.946612
726.488770	47.907194
726.636719	47.904820
726.784729	47.928388
726.932678	47.948712
727.080627	47.935500
727.228577	47.954685
727.376526	47.959814
727.524414	47.924259
727.672363	47.929650
727.820251	47.905284
727.968140	47.883576
728.116028	47.909593
728.263916	47.938470
728.411804	47.934314
728.559631	47.913886
728.707520	47.902182
728.855347	47.942507
729.003174	47.921186
729.151001	47.884926
729.298828	47.928838
729.446594	47.965320
729.594421	47.988135
729.742188	47.982255
729.890015	47.935614
730.037781	47.933235
730.185486	47.882440
730.333252	47.887689
730.481018	47.856103
730.628723	47.859758
730.776428	47.859904
730.924194	47.875444
731.071899	47.878479
731.219543	47.850419
731.367249	47.869833
731.514954	47.877724
731.662598	47.881348
731.810242	47.874102
731.957886	47.916103
732.105530	47.940022
732.253174	47.914774
732.400818	47.896873
732.548401	47.895830
732.695984	47.905679
732.843567	47.959357
732.991150	47.963694
733.138733	47.967721
733.286316	47.950409
733.433838	47.987244
733.581421	47.997096
733.728943	47.973446
733.876465	47.973131
734.023987	47.932740
734.171509	47.999163
734.318970	47.984595
734.466492	47.974210
734.613953	47.989675
734.761414	47.976761
734.908875	47.957280
735.056335	47.959092
735.203796	47.937663
735.351196	47.944198
735.498657	47.916599
735.646057	47.909486
735.793457	47.904843
735.940857	47.911945
736.088257	47.950218
736.235657	47.962096
736.382996	47.971655
736.530334	47.980028
736.677734	48.004173
736.825073	48.008815
736.972351	48.086605
737.119690	48.047725
737.267029	48.065658
737.414307	48.072954
737.561584	48.111808
737.708862	48.126064
737.856140	48.100568
738.003418	48.120630
738.150696	48.108867
738.297913	48.136850
738.445190	48.142247
738.592407	48.142599
738.739624	48.120216
738.886841	48.107890
739.033997	48.127409
739.181213	48.155900
739.328369	48.158936
739.475586	48.167305
739.622742	48.165661
739.769897	48.155275
739.916992	48.110115
740.064148	48.108758
740.211304	48.124972
740.358398	48.146013
740.505493	48.115307
740.652588	48.056328
740.799683	48.113731
740.946777	48.097521
741.093811	48.138354
741.240906	48.143349
741.387939	48.186525
741.534973	48.213452
741.682007	48.211772
741.829041	48.225691
741.976013	48.190436
742.123047	48.218832
742.270020	48.206154
742.416992	48.212569
742.563965	48.248055
742.710938	48.274048
742.857910	48.244279
743.004883	48.259353
743.151794	48.238890
743.298706	48.257051
743.445618	48.234069
743.592529	48.269851
743.739441	48.246962
743.886353	48.251877
744.033203	48.265690
744.180115	48.250076
744.326965	48.195295
744.473816	48.191056
744.620667	48.203637
744.767456	48.201770
744.914307	48.235431
745.061096	48.212493
745.207947	48.250559
745.354736	48.242605
745.501526	48.211660
745.648254	48.220729
745.795044	48.263431
745.941833	48.286451
746.088562	48.296309
746.235291	48.265956
746.382019	48.293338
746.528748	48.323136
746.675476	48.341160
746.822144	48.347362
746.968872	48.320668
747.115540	48.356604
747.262207	48.366104
747.408875	48.346949
747.555542	48.395391
747.702148	48.395018
747.848816	48.403351
747.995422	48.391585
748.142029	48.362066
748.288635	48.367111
748.435242	48.352463
748.581848	48.356349
748.728394	48.352349
748.875000	48.337984
749.021545	48.328278
749.168091	48.359130
749.314636	48.368923
749.461182	48.371686
749.607666	48.382868
749.754211	48.416405
749.900696	48.448833
750.047180	48.460621
750.193665	48.492552
750.340149	48.521159
750.486633	48.504445
750.633057	48.511677
750.779541	48.495993
750.925964	48.489992
751.072388	48.515007
751.218811	48.514597
751.365234	48.516290
751.511597	48.472374
751.658020	48.503220
751.804382	48.510826
751.950745	48.526180
752.097107	48.494844
752.243469	48.480769
752.389832	48.486162
752.536133	48.478715
752.682495	48.461812
752.828796	48.431157
752.975098	48.414689
753.121399	48.427746
753.267639	48.354864
753.413940	48.341058
753.560181	48.329337
753.706482	48.320946
753.852722	48.325754
753.998962	48.338488
754.145203	48.357809
754.291382	48.372718
754.437622	48.411764
754.583801	48.394417
754.729980	48.405169
754.876160	48.443574
755.022339	48.464477
755.168518	48.467533
755.314697	48.451910
755.460815	48.440943
755.606934	48.434933
755.753052	48.476345
755.899170	48.502244
756.045288	48.496570
756.191406	48.592256
756.337463	48.598358
756.483521	48.604451
756.629639	48.606369
756.775696	48.606018
756.921692	48.584974
757.067749	48.549951
757.213806	48.568174
757.359802	48.586663
757.505798	48.595252
757.651794	48.561814
757.797791	48.528482
757.943787	48.527511
758.089783	48.552232
758.235718	48.568967
758.381653	48.577647
758.527588	48.581766
758.673523	48.545578
758.819458	48.539551
758.965393	48.561484
759.111267	48.528240
759.257202	48.529499
759.403076	48.521946
759.548950	48.535750
759.694824	48.567317
759.840698	48.574346
759.986511	48.613261
760.132385	48.612416
760.278198	48.598373
760.424011	48.600626
760.569824	48.669686
760.715637	48.698382
760.861389	48.698071
761.007202	48.689033
761.152954	48.699897
761.298706	48.695954
761.444458	48.734069
761.590210	48.751191
761.735962	48.739385
761.881653	48.738330
762.027405	48.744005
762.173096	48.749361
762.318787	48.762421
762.464478	48.712557
762.610168	48.731077
762.755798	48.726058
762.901489	48.760742
763.047119	48.766058
763.192749	48.763703
763.338379	48.791377
763.484009	48.781903
763.629639	48.763337
763.775208	48.759777
763.920837	48.790106
764.066406	48.781581
764.211975	48.796883
764.357544	48.767646
764.503052	48.787421
764.648621	48.793563
764.794128	48.817936
764.939697	48.787097
765.085205	48.813390
765.230713	48.777457
765.376221	48.805688
765.521667	48.767452
765.667175	48.760405
765.812622	48.734769
765.958069	48.747584
766.103516	48.799210
766.248962	48.810040
766.394409	48.781868
766.539795	48.777816
766.685181	48.811006
766.830627	48.781973
766.976013	48.785153
767.121399	48.767467
767.266724	48.784967
767.412109	48.756746
767.557434	48.750822
767.702820	48.722181
767.848145	48.775139
767.993469	48.759084
768.138733	48.824058
768.284058	48.839250
768.429382	48.872121
768.574646	48.894348
768.719910	48.890099
768.865173	48.890386
769.010437	48.862220
769.155701	48.842137
769.300903	48.872815
769.446167	48.850478
769.591370	48.833998
769.736572	48.828315
769.881775	48.793858
770.026978	48.837105
770.172119	48.849340
770.317322	48.887129
770.462463	48.901817
770.607605	48.926878
770.752747	48.955416
770.897888	48.967817
771.042969	48.954354
771.188110	48.986420
771.333191	48.991004
771.478271	48.997338
771.623352	48.983162
771.768433	49.008061
771.913513	48.983090
772.058533	48.973936
772.203613	48.955464
772.348633	48.974386
772.493652	49.009621
772.638672	49.060826
772.783691	49.095023
772.928650	49.042280
773.073669	49.047479
773.218628	49.053523
773.363586	49.045945
773.508545	49.013399
773.653503	49.026384
773.798462	49.006100
773.943359	48.998380
774.088257	48.993448
774.233215	48.975915
774.378113	48.984282
774.522949	48.993804
774.667847	48.965914
774.812744	48.975181
774.957581	48.989531
775.102417	48.996843
775.247253	49.026437
775.392090	49.007518
775.536926	48.985624
775.681763	48.982794
775.826538	49.041703
775.971313	48.999087
776.116089	48.976053
776.260864	49.006316
776.405640	48.989989
776.550415	48.950774
776.695129	48.942358
776.839905	48.943544
776.984619	48.944064
777.129333	48.937076
777.274048	48.998431
777.418701	48.954518
777.563416	48.974220
777.708069	48.989631
777.852722	48.990189
777.997375	48.984354
778.142029	48.990940
778.286682	48.996019
778.431335	48.985508
778.575928	48.996214
778.720520	48.998821
778.865112	49.039609
779.009705	49.074139
779.154297	49.040758
779.298889	49.067890
779.443420	49.098085
779.588013	49.150331
779.732544	49.154424
779.877075	49.149262
780.021606	49.133225
780.166077	49.110555
780.310608	49.187391
780.455078	49.235339
780.599548	49.252477
780.744019	49.275313
780.888489	49.283086
781.032959	49.304283
781.177429	49.315073
781.321838	49.346242
781.466248	49.371518
781.610657	49.395503
781.755066	49.399280
781.899475	49.354028
782.043884	49.415627
782.188232	49.427973
782.332581	49.392140
782.476929	49.371540
782.621277	49.394364
782.765625	49.435812
782.909973	49.476000
783.054260	49.472589
783.198608	49.455016
783.342896	49.422010
783.487183	49.414412
783.631470	49.400253
783.775696	49.385446
783.919983	49.351718
784.064209	49.364531
784.208435	49.341071
784.352722	49.331172
784.496887	49.269938
784.641113	49.274162
784.785339	49.308929
784.929504	49.263477
785.073669	49.248129
785.217896	49.279401
785.362000	49.241368
785.506165	49.264410
785.650330	49.231195
785.794434	49.240659
785.938599	49.240148
786.082703	49.259845
786.226807	49.238253
786.370911	49.244710
786.514954	49.245039
786.659058	49.251617
786.803101	49.281401
786.947144	49.252973
787.091187	49.255089
787.235229	49.245028
787.379272	49.270148
787.523254	49.265630
787.667297	49.256516
787.811279	49.284774
787.955261	49.336432
788.099243	49.296668
788.243225	49.354173
788.387146	49.314993
788.531128	49.295484
788.675049	49.286818
788.818970	49.259828
788.962891	49.267576
789.106812	49.313322
789.250671	49.331574
789.394592	49.344765
789.538452	49.335492
789.682312	49.322216
789.826172	49.357567
789.970032	49.365683
790.113892	49.363510
790.257690	49.374686
790.401550	49.363782
790.545349	49.379670
790.689148	49.386631
790.832947	49.356165
790.976685	49.417867
791.120483	49.380428
791.264221	49.370330
791.408020	49.386034
791.551758	49.389780
791.695435	49.381307
791.839172	49.322950
791.982910	49.330207
792.126587	49.298429
792.270264	49.272255
792.414001	49.318986
792.557617	49.308466
792.701294	49.285830
792.844971	49.271653
792.988586	49.306116
793.132263	49.293261
793.275879	49.311601
793.419495	49.307921
793.563110	49.293036
793.706665	49.266553
793.850281	49.244432
793.993835	49.265109
794.137390	49.292505
794.280945	49.312071
794.424500	49.312153
794.568054	49.374892
794.711548	49.413226
794.855103	49.360156
794.998596	49.383614
795.142090	49.429271
795.285583	49.406033
795.429016	49.411095
795.572510	49.422424
795.715942	49.462311
795.859436	49.513256
796.002869	49.511782
796.146301	49.547313
796.289673	49.559268
796.433105	49.573421
796.576477	49.600100
796.719910	49.592676
796.863281	49.597971
797.006653	49.596747
797.149963	49.558311
797.293335	49.554394
797.436707	49.561199
797.580017	49.596767
797.723328	49.636410
797.866638	49.663768
798.009949	49.664180
798.153198	49.693117
798.296509	49.722730
798.439758	49.725323
798.583008	49.731232
798.726257	49.703130
798.869507	49.754201
799.012756	49.719527
799.156006	49.690022
799.299194	49.709180
799.442383	49.708407
799.585571	49.706320
799.728760	49.698407
799.871948	49.719911
800.015076	49.786616
800.158264	49.801640
800.301392	49.729273
800.444519	49.699654
800.587646	49.698499
800.730774	49.685467
800.873840	49.647080
801.016968	49.605428
801.160034	49.596229
801.303101	49.583060
801.446167	49.575722
801.589233	49.555263
801.732239	49.517855
801.875305	49.519534
802.018311	49.524383
802.161316	49.488886
802.304321	49.508975
802.447327	49.488461
802.590332	49.478076
802.733276	49.461753
802.876282	49.398729
803.019226	49.389869
803.162170	49.415485
803.305115	49.399019
803.447998	49.362263
803.590942	49.341854
803.733826	49.360591
803.876709	49.374931
804.019592	49.371225
804.162476	49.386773
804.305359	49.374435
804.448181	49.347038
804.591064	49.369845
804.733887	49.372516
804.876709	49.423550
805.019531	49.434348
805.162354	49.418926
805.305115	49.437129
805.447937	49.487073
805.590698	49.499631
805.733459	49.562292
805.876221	49.565467
806.018982	49.561131
806.161682	49.572494
806.304443	49.630165
806.447144	49.628607
806.589844	49.676489
806.732544	49.702864
806.875244	49.687855
807.017883	49.669679
807.160583	49.656004
807.303223	49.718784
807.445862	49.715410
807.588501	49.722377
807.731140	49.701633
807.873779	49.728570
808.016357	49.724720
808.158936	49.746111
808.301575	49.745836
808.444153	49.795068
808.586670	49.748984
808.729248	49.739761
808.871826	49.764725
809.014343	49.758674
809.156860	49.704781
809.299377	49.737482
809.441895	49.700251
809.584412	49.688764
809.726868	49.715526
809.869385	49.714771
810.011841	49.696707
810.154297	49.697916
810.296753	49.671965
810.439148	49.688653
810.581604	49.714820
810.723999	49.690462
810.866455	49.730653
811.008850	49.715943
811.151184	49.690705
811.293579	49.650894
811.435974	49.682789
811.578308	49.687470
811.720642	49.671143
811.863037	49.693129
812.005310	49.706783
812.147644	49.673492
812.289978	49.711041
812.432251	49.760263
812.574524	49.768919
812.716858	49.833471
812.859070	49.882252
813.001343	49.867163
813.143616	49.896679
813.285828	49.924577
813.428101	49.860018
813.570312	49.864119
813.712524	49.862370
813.854675	49.870173
813.996887	49.896275
814.139099	49.908729
814.281250	49.922928
814.423401	49.939104
814.565552	49.950367
814.707703	49.975610
814.849792	50.033222
814.991943	50.089449
815.134033	50.059753
815.276123	50.016027
815.418213	49.995402
815.560303	49.937337
815.702393	49.910536
815.844421	49.897599
815.986511	49.903399
816.128540	49.901128
816.270569	49.952193
816.412598	49.947608
816.554565	49.924132
816.696594	49.917622
816.838562	49.856318
816.980591	49.832879
817.122559	49.813421
817.264465	49.788780
817.406433	49.799336
817.548401	49.772841
817.690308	49.723028
817.832214	49.671029
817.974121	49.678680
818.116028	49.693612
818.257935	49.725152
818.399780	49.732850
818.541687	49.757580
818.683533	49.726656
818.825378	49.684909
818.967224	49.651358
819.109070	49.606457
819.250854	49.636324
819.392700	49.650477
819.534485	49.621745
819.676270	49.672422
819.818054	49.670004
819.959839	49.663862
820.101562	49.689394
820.243347	49.678554
820.385071	49.700843
820.526794	49.720000
820.668518	49.723866
820.810242	49.743773
820.951904	49.742865
821.093628	49.688893
821.235291	49.702485
821.376953	49.668380
821.518616	49.693890
821.660278	49.734203
821.801880	49.731301
821.943542	49.796188
822.085144	49.779951
822.226746	49.789177
822.368347	49.856734
822.509949	49.904647
822.651550	49.956718
822.793091	49.977679
822.934631	50.012753
823.076233	50.009931
823.217773	50.018226
823.359253	50.027814
823.500793	50.031736
823.642273	50.011747
823.783813	50.035080
823.925293	50.072661
824.066772	50.081540
824.208252	50.164216
824.349670	50.184952
824.491150	50.208872
824.632568	50.209184
824.773987	50.173867
824.915405	50.177480
825.056824	50.185870
825.198242	50.195437
825.339600	50.119133
825.481018	50.107149
825.622375	50.129799
825.763733	50.095832
825.905029	50.152027
826.046387	50.132531
826.187744	50.125492
826.329041	50.114107
826.470337	50.106205
826.611633	50.134046
826.752930	50.124494
826.894226	50.120018
827.035461	50.095663
827.176758	50.075691
827.317993	50.085556
827.459229	50.085480
827.600464	50.137647
827.741638	50.148997
827.882874	50.154582
828.024048	50.139827
828.165222	50.182124
828.306396	50.156396
828.447571	50.166158
828.588745	50.199869
828.729858	50.139241
828.871033	50.184000
829.012146	50.202264
829.153259	50.235708
829.294373	50.206750
829.435486	50.165018
829.576538	50.187995
829.717590	50.189252
829.858704	50.169894
829.999756	50.218220
830.140808	50.195083
830.281799	50.227611
830.422852	50.233055
830.563843	50.200595
830.704834	50.164370
830.845825	50.131371
830.986816	50.128506
831.127808	50.145795
831.268799	50.141832
831.409729	50.132596
831.550659	50.208682
831.691589	50.129268
831.832520	50.129957
831.973450	50.097601
832.114319	50.172656
832.255249	50.189564
832.396118	50.171876
832.536987	50.234022
832.677856	50.243804
832.818726	50.200297
832.959534	50.185570
833.100342	50.176272
833.241211	50.152827
833.382019	50.198560
833.522827	50.219326
833.663574	50.247036
833.804382	50.263185
833.945129	50.228746
834.085876	50.201084
834.226685	50.213071
834.367371	50.133103
834.508118	50.203287
834.648865	50.221726
834.789551	50.268659
834.930237	50.262682
835.070923	50.245410
835.211609	50.251186
835.352295	50.173870
835.492981	50.169711
835.633606	50.197415
835.774231	50.228880
835.914856	50.184796
836.055481	50.134865
836.196106	50.120854
836.336670	50.113838
836.477295	50.148875
836.617859	50.123083
836.758423	50.158950
836.898987	50.193721
837.039551	50.204033
837.180054	50.239828
837.320618	50.245431
837.461121	50.238275
837.601624	50.256861
837.742126	50.238426
837.882629	50.255483
838.023071	50.253834
838.163574	50.274968
838.304016	50.296900
838.444458	50.267129
838.584900	50.273055
838.725281	50.312550
838.865723	50.346542
839.006104	50.351334
839.146545	50.390075
839.286926	50.376271
839.427307	50.411581
839.567627	50.364992
839.708008	50.343494
839.848328	50.338840
839.988647	50.355095
840.128967	50.325842
840.269287	50.366805
840.409607	50.365789
840.549927	50.430631
840.690186	50.437246
840.830444	50.455253
840.970703	50.491942
841.110962	50.482947
841.251221	50.559136
841.391418	50.492961
841.531677	50.494790
841.671875	50.509932
841.812073	50.505237
841.952271	50.500341
842.092468	50.469743
842.232605	50.506260
842.372803	50.552372
842.512939	50.567118
842.653076	50.591372
842.793213	50.610427
842.933289	50.617495
843.073425	50.553123
843.213501	50.588464
843.353638	50.514080
843.493713	50.539346
843.633789	50.520033
843.773804	50.502587
843.913879	50.530871
844.053894	50.457508
844.193909	50.474947
844.333923	50.464178
844.473938	50.463265
844.613953	50.465357
844.753906	50.473713
844.893921	50.552226
845.033875	50.465216
845.173828	50.440073
845.313782	50.412021
845.453735	50.345222
845.593628	50.343121
845.733582	50.369784
845.873474	50.387889
846.013367	50.316803
846.153259	50.332066
846.293091	50.375775
846.432983	50.387070
846.572815	50.412227
846.712646	50.419292
846.852478	50.447948
846.992310	50.472739
847.132141	50.494631
847.271912	50.478803
847.411743	50.495923
847.551514	50.458424
847.691284	50.414621
847.831055	50.443977
847.970764	50.444800
848.110535	50.506481
848.250244	50.580452
848.389954	50.537659
848.529663	50.500865
848.669373	50.513907
848.809082	50.507385
848.948730	50.534494
849.088440	50.477641
849.228088	50.508994
849.367737	50.480037
849.507385	50.466921
849.646973	50.491968
849.786621	50.522511
849.926208	50.501367
850.065796	50.484718
850.205383	50.518462
850.344971	50.545213
850.484558	50.583244
850.624084	50.628617
850.763611	50.689987
850.903198	50.647926
851.042725	50.608699
851.182190	50.673111
851.321716	50.732368
851.461182	50.726445
851.600708	50.734735
851.740173	50.747045
851.879639	50.733340
852.019104	50.711259
852.158508	50.743663
852.297974	50.743791
852.437378	50.694822
852.576782	50.646032
852.716187	50.672213
852.855591	50.723214
852.994934	50.678271
853.134338	50.671048
853.273682	50.665339
853.413025	50.657163
853.552368	50.633197
853.691711	50.647218
853.830994	50.666100
853.970337	50.646099
854.109619	50.601648
854.248901	50.626871
854.388184	50.643661
854.527466	50.610594
854.666687	50.617205
854.805969	50.648404
854.945190	50.646084
855.084412	50.675344
855.223633	50.705878
855.362854	50.746578
855.502014	50.719171
855.641235	50.720820
855.780396	50.750728
855.919556	50.748735
856.058716	50.712699
856.197876	50.730365
856.336975	50.739966
856.476135	50.756785
856.615234	50.752371
856.754333	50.730443
856.893433	50.771501
857.032471	50.680028
857.171570	50.654651
857.310608	50.672465
857.449646	50.676036
857.588745	50.687037
857.727722	50.707915
857.866760	50.703319
858.005798	50.717736
858.144775	50.750716
858.283752	50.806545
858.422729	50.791452
858.561707	50.803394
858.700684	50.839070
858.839600	50.823369
858.978516	50.806004
859.117493	50.795788
859.256409	50.833826
859.395264	50.831499
859.534180	50.850656
859.673096	50.797656
859.811951	50.897099
859.950806	50.913068
860.089661	50.909172
860.228516	50.904618
860.367310	50.884055
860.506165	50.822944
860.644958	50.780233
860.783752	50.749491
860.922546	50.737341
861.061340	50.683449
861.200134	50.678781
861.338867	50.635344
861.477600	50.646967
861.616333	50.670533
