# Wavelength (nm)	Smoothed Intensity
299.383362	2.845124
299.552002	2.912997
299.720612	2.965793
299.889191	3.026401
300.057800	3.121670
300.226379	3.206903
300.394958	3.287115
300.563538	3.375331
300.732117	3.472953
300.900696	3.555794
301.069244	3.626865
301.237793	3.720174
301.406342	3.794346
301.574890	3.881855
301.743408	3.965358
301.911957	4.057983
302.080475	4.144491
302.248993	4.221869
302.417480	4.326730
302.585999	4.423984
302.754486	4.531443
302.922974	4.623646
303.091461	4.734346
303.259949	4.814036
303.428436	4.898621
303.596893	4.984393
303.765350	5.071468
303.933807	5.170105
304.102264	5.260589
304.270691	5.367605
304.439117	5.467146
304.607574	5.564809
304.776001	5.659409
304.944397	5.771069
305.112823	5.861433
305.281219	5.949175
305.449615	6.057339
305.618011	6.167701
305.786407	6.267618
305.954773	6.371323
306.123169	6.477630
306.291534	6.581758
306.459900	6.681449
306.628235	6.791141
306.796600	6.898774
306.964935	7.006372
307.133270	7.132176
307.301605	7.232980
307.469940	7.344453
307.638245	7.435793
307.806580	7.556375
307.974884	7.671436
308.143188	7.785233
308.311462	7.898055
308.479767	8.006396
308.648041	8.130440
308.816315	8.231934
308.984589	8.337726
309.152863	8.439950
309.321106	8.539895
309.489380	8.638341
309.657623	8.756015
309.825867	8.875683
309.994080	8.982470
310.162323	9.097306
310.330536	9.203551
310.498749	9.310102
310.666962	9.420049
310.835175	9.539183
311.003357	9.654832
311.171539	9.750344
311.339752	9.847440
311.507904	9.958876
311.676086	10.073556
311.844238	10.187285
312.012421	10.291712
312.180573	10.400127
312.348724	10.517833
312.516846	10.622010
312.684998	10.750149
312.853119	10.847231
313.021240	10.955667
313.189362	11.055404
313.357452	11.163559
313.525574	11.265775
313.693665	11.375476
313.861755	11.470968
314.029846	11.570908
314.197937	11.667335
314.365997	11.762517
314.534058	11.863658
314.702118	11.973237
314.870178	12.070585
315.038239	12.164618
315.206268	12.245209
315.374298	12.346464
315.542328	12.454572
315.710358	12.541957
315.878357	12.654014
316.046387	12.729559
316.214386	12.831992
316.382385	12.939314
316.550385	13.036546
316.718353	13.136060
316.886353	13.228397
317.054321	13.328675
317.222290	13.430748
317.390259	13.555522
317.558197	13.643716
317.726135	13.739011
317.894104	13.830378
318.062012	13.931985
318.229950	14.012903
318.397888	14.117974
318.565796	14.224072
318.733704	14.303390
318.901611	14.377770
319.069519	14.476886
319.237396	14.552567
319.405304	14.651839
319.573181	14.762278
319.741058	14.819997
319.908905	14.889492
320.076782	14.962550
320.244629	15.056677
320.412476	15.126866
320.580322	15.211341
320.748169	15.267305
320.915985	15.360198
321.083801	15.468493
321.251617	15.551849
321.419434	15.626377
321.587250	15.722083
321.755035	15.775162
321.922821	15.859054
322.090607	15.957144
322.258392	16.037860
322.426178	16.119449
322.593933	16.211043
322.761719	16.268390
322.929474	16.316774
323.097198	16.412720
323.264954	16.493207
323.432678	16.569183
323.600403	16.642598
323.768127	16.716714
323.935852	16.778026
324.103577	16.859654
324.271271	16.934367
324.438965	16.991596
324.606659	17.070789
324.774353	17.133603
324.942047	17.196632
325.109711	17.262889
325.277374	17.337137
325.445038	17.400762
325.612701	17.456155
325.780334	17.500085
325.947968	17.549476
326.115631	17.622376
326.283234	17.700428
326.450867	17.764664
326.618500	17.838474
326.786102	17.905139
326.953705	17.955396
327.121307	18.020632
327.288879	18.086496
327.456482	18.151988
327.624054	18.205641
327.791626	18.254539
327.959198	18.307749
328.126770	18.379284
328.294312	18.448075
328.461853	18.530826
328.629395	18.574690
328.796936	18.614660
328.964478	18.687238
329.131989	18.773147
329.299500	18.838251
329.467010	18.914333
329.634521	18.982480
329.802002	19.031830
329.969513	19.098839
330.136993	19.165331
330.304474	19.235912
330.471954	19.286612
330.639404	19.344995
330.806854	19.368997
330.974335	19.442080
331.141754	19.517194
331.309204	19.586481
331.476654	19.637364
331.644073	19.713061
331.811493	19.754994
331.978912	19.819279
332.146332	19.876472
332.313721	19.929187
332.481110	19.972372
332.648499	20.044156
332.815887	20.081826
332.983276	20.134895
333.150635	20.191844
333.317993	20.232946
333.485352	20.293404
333.652710	20.329053
333.820068	20.395783
333.987396	20.457012
334.154724	20.528689
334.322052	20.555650
334.489380	20.586778
334.656708	20.617546
334.824005	20.657669
334.991302	20.654552
335.158600	20.698689
335.325897	20.727559
335.493164	20.789110
335.660431	20.844307
335.827728	20.886300
335.994965	20.910177
336.162231	20.953719
336.329498	21.002170
336.496735	21.037669
336.663971	21.064003
336.831207	21.087317
336.998413	21.149331
337.165649	21.193598
337.332855	21.211789
337.500061	21.255594
337.667267	21.288237
337.834442	21.330657
338.001648	21.372464
338.168823	21.416612
338.335999	21.481606
338.503174	21.524248
338.670319	21.569955
338.837494	21.615167
339.004639	21.654760
339.171783	21.695433
339.338898	21.729413
339.506042	21.774993
339.673157	21.805057
339.840271	21.849867
340.007385	21.905727
340.174500	21.939796
340.341583	21.974834
340.508667	22.006304
340.675751	22.057153
340.842834	22.086995
341.009918	22.149772
341.176971	22.196862
341.344055	22.237938
341.511108	22.277159
341.678131	22.314519
341.845184	22.345705
342.012207	22.386480
342.179230	22.418791
342.346252	22.447397
342.513275	22.481505
342.680298	22.522798
342.847290	22.554045
343.014282	22.562630
343.181274	22.593503
343.348267	22.618793
343.515228	22.654301
343.682190	22.668541
343.849152	22.691598
344.016113	22.724464
344.183075	22.763228
344.350006	22.785661
344.516968	22.811584
344.683899	22.855493
344.850800	22.868982
345.017731	22.899233
345.184631	22.924521
345.351532	22.945758
345.518433	22.978814
345.685333	23.012165
345.852234	23.021385
346.019104	23.067826
346.185974	23.082307
346.352844	23.120289
346.519714	23.148853
346.686554	23.182143
346.853424	23.206318
347.020264	23.242574
347.187073	23.268077
347.353912	23.282758
347.520721	23.304048
347.687561	23.330069
347.854370	23.350682
348.021179	23.356973
348.187958	23.393868
348.354736	23.406627
348.521545	23.449640
348.688324	23.476152
348.855072	23.485005
349.021851	23.498273
349.188599	23.532979
349.355347	23.539764
349.522095	23.565740
349.688843	23.599528
349.855560	23.613328
350.022308	23.628359
350.189026	23.654902
350.355743	23.671476
350.522430	23.688308
350.689148	23.725700
350.855835	23.746681
351.022522	23.758834
351.189209	23.784606
351.355865	23.819027
351.522522	23.852452
351.689209	23.891996
351.855865	23.894426
352.022491	23.919858
352.189148	23.932812
352.355774	23.959263
352.522400	23.985873
352.689026	24.010423
352.855652	24.027795
353.022247	24.060324
353.188843	24.088250
353.355438	24.113642
353.522034	24.131899
353.688629	24.149279
353.855194	24.176375
354.021759	24.201498
354.188324	24.218428
354.354889	24.252230
354.521454	24.285888
354.687988	24.308879
354.854523	24.325515
355.021057	24.335600
355.187592	24.363696
355.354095	24.379638
355.520599	24.411136
355.687134	24.437315
355.853607	24.456747
356.020111	24.493027
356.186584	24.512813
356.353088	24.523054
356.519562	24.540635
356.686005	24.570589
356.852478	24.585952
357.018921	24.618874
357.185364	24.626274
357.351807	24.631378
357.518250	24.659250
357.684692	24.677672
357.851105	24.675620
358.017517	24.692192
358.183929	24.699246
358.350311	24.737886
358.516724	24.741451
358.683105	24.761838
358.849487	24.775329
359.015869	24.799191
359.182220	24.815046
359.348602	24.814321
359.514954	24.833369
359.681305	24.851181
359.847656	24.857427
360.013977	24.872854
360.180298	24.890074
360.346649	24.906533
360.512939	24.937444
360.679260	24.962654
360.845581	24.978168
361.011871	24.974034
361.178162	25.003787
361.344452	25.017618
361.510712	25.039176
361.677002	25.030986
361.843262	25.065621
362.009521	25.092653
362.175751	25.103156
362.342010	25.123353
362.508240	25.148558
362.674469	25.170818
362.840698	25.192250
363.006927	25.192106
363.173126	25.221692
363.339325	25.221650
363.505524	25.252201
363.671722	25.258756
363.837921	25.291620
364.004089	25.296507
364.170258	25.315254
364.336426	25.347882
364.502594	25.354966
364.668762	25.366298
364.834900	25.370496
365.001038	25.383930
365.167175	25.390645
365.333282	25.405820
365.499420	25.432161
365.665527	25.435384
365.831635	25.432662
365.997742	25.456092
366.163818	25.472424
366.329926	25.501130
366.496002	25.513097
366.662079	25.525474
366.828156	25.527997
366.994202	25.550295
367.160248	25.535128
367.326294	25.551485
367.492340	25.558864
367.658386	25.566671
367.824402	25.578536
367.990448	25.597921
368.156464	25.619946
368.322449	25.657065
368.488464	25.663532
368.654449	25.658634
368.820435	25.660614
368.986420	25.670686
369.152405	25.707180
369.318390	25.716319
369.484344	25.708998
369.650299	25.700157
369.816254	25.721373
369.982178	25.742581
370.148132	25.762586
370.314056	25.771862
370.479980	25.800859
370.645905	25.823658
370.811798	25.842424
370.977692	25.855117
371.143616	25.875754
371.309479	25.898935
371.475372	25.913762
371.641266	25.927420
371.807129	25.952884
371.972992	25.969351
372.138855	25.983856
372.304688	25.997642
372.470551	25.992503
372.636383	25.994862
372.802216	26.036808
372.968018	26.059764
373.133850	26.074233
373.299652	26.096139
373.465454	26.103608
373.631256	26.126661
373.797058	26.130930
373.962830	26.132716
374.128601	26.134912
374.294373	26.152423
374.460144	26.159965
374.625916	26.178473
374.791656	26.189176
374.957397	26.179375
375.123138	26.185944
375.288879	26.209050
375.454590	26.235287
375.620331	26.222102
375.786041	26.245807
375.951721	26.267243
376.117432	26.257888
376.283112	26.286894
376.448822	26.298137
376.614471	26.298646
376.780151	26.328278
376.945831	26.326843
377.111481	26.338523
377.277130	26.375150
377.442780	26.392383
377.608429	26.398948
377.774048	26.410910
377.939667	26.392506
378.105286	26.402386
378.270905	26.423596
378.436523	26.432016
378.602112	26.440624
378.767700	26.434983
378.933289	26.467792
379.098877	26.455106
379.264435	26.457657
379.429993	26.471934
379.595551	26.468138
379.761108	26.457175
379.926666	26.462417
380.092194	26.461928
380.257721	26.479128
380.423248	26.488470
380.588776	26.466077
380.754272	26.462109
380.919800	26.473197
381.085297	26.484697
381.250793	26.511820
381.416260	26.513411
381.581757	26.530553
381.747223	26.544959
381.912689	26.551535
382.078125	26.574493
382.243591	26.594983
382.409027	26.618790
382.574463	26.633627
382.739899	26.665462
382.905334	26.669568
383.070740	26.696748
383.236176	26.712520
383.401581	26.727649
383.566956	26.726247
383.732361	26.742472
383.897736	26.765376
384.063110	26.784475
384.228485	26.809575
384.393860	26.811813
384.559204	26.835333
384.724579	26.856943
384.889923	26.860295
385.055237	26.872630
385.220581	26.873284
385.385895	26.878987
385.551239	26.895077
385.716522	26.912919
385.881836	26.933754
386.047150	26.921814
386.212433	26.953055
386.377716	26.980515
386.542999	26.990376
386.708252	26.996422
386.873535	27.022594
387.038788	27.036691
387.204041	27.029517
387.369293	27.056369
387.534515	27.074734
387.699738	27.086694
387.864960	27.104764
388.030182	27.111341
388.195404	27.090889
388.360596	27.106785
388.525787	27.110223
388.690979	27.136531
388.856171	27.135891
389.021362	27.141256
389.186523	27.140902
389.351685	27.163873
389.516846	27.155842
389.682007	27.163454
389.847137	27.167341
390.012268	27.174801
390.177399	27.180928
390.342529	27.194292
390.507629	27.194197
390.672760	27.163071
390.837860	27.135562
391.002960	27.140119
391.168030	27.109486
391.333130	27.121706
391.498199	27.155679
391.663269	27.175449
391.828339	27.204997
391.993378	27.212258
392.158447	27.221878
392.323486	27.225409
392.488525	27.228552
392.653534	27.238672
392.818573	27.255754
392.983582	27.226910
393.148590	27.254361
393.313599	27.247948
393.478577	27.260894
393.643585	27.255675
393.808563	27.292590
393.973541	27.329618
394.138489	27.358853
394.303467	27.377765
394.468414	27.395265
394.633362	27.413009
394.798309	27.419363
394.963226	27.417693
395.128174	27.401309
395.293091	27.395911
395.458008	27.402044
395.622894	27.418200
395.787811	27.434388
395.952698	27.424629
396.117584	27.433377
396.282471	27.457342
396.447327	27.448152
396.612213	27.477731
396.777069	27.489432
396.941925	27.509005
397.106750	27.512389
397.271606	27.519269
397.436432	27.526960
397.601257	27.520216
397.766083	27.522589
397.930878	27.526653
398.095703	27.541195
398.260498	27.530098
398.425293	27.565347
398.590057	27.564611
398.754852	27.572313
398.919617	27.585515
399.084381	27.592333
399.249146	27.617453
399.413879	27.625702
399.578644	27.637449
399.743378	27.660551
399.908112	27.667436
400.072815	27.664385
400.237549	27.667780
400.402252	27.672083
400.566956	27.668865
400.731659	27.681071
400.896332	27.704509
401.061035	27.721365
401.225708	27.732924
401.390381	27.724593
401.555023	27.739653
401.719696	27.744576
401.884338	27.760170
402.048981	27.761602
402.213623	27.754559
402.378235	27.763939
402.542847	27.773944
402.707489	27.761378
402.872070	27.784165
403.036682	27.775081
403.201294	27.786666
403.365875	27.792105
403.530457	27.808485
403.695007	27.810925
403.859589	27.847236
404.024139	27.862015
404.188690	27.846692
404.353241	27.848675
404.517792	27.855860
404.682312	27.886766
404.846832	27.896322
405.011353	27.911182
405.175873	27.919398
405.340393	27.947664
405.504883	27.949143
405.669373	27.968608
405.833862	27.967879
405.998322	27.995323
406.162811	28.006221
406.327271	28.031277
406.491730	28.026419
406.656189	28.037166
406.820618	28.034254
406.985046	28.050672
407.149475	28.049694
407.313904	28.034093
407.478333	28.053914
407.642731	28.071304
407.807129	28.052424
407.971527	28.054179
408.135925	28.061105
408.300293	28.044223
408.464661	28.037817
408.629028	28.039808
408.793396	28.049648
408.957764	28.042072
409.122101	28.050062
409.286438	28.058996
409.450775	28.054376
409.615112	28.057249
409.779419	28.052595
409.943726	28.064546
410.108032	28.080224
410.272339	28.089548
410.436646	28.091731
410.600922	28.099505
410.765198	28.114701
410.929474	28.111745
411.093750	28.142777
411.257996	28.139789
411.422241	28.166914
411.586487	28.190002
411.750732	28.205620
411.914948	28.220666
412.079193	28.222671
412.243408	28.243056
412.407623	28.254556
412.571808	28.245656
412.735992	28.256994
412.900208	28.255023
413.064392	28.260335
413.228546	28.252812
413.392731	28.273041
413.556885	28.284314
413.721039	28.293826
413.885193	28.313861
414.049316	28.314557
414.213470	28.325890
414.377594	28.318499
414.541718	28.342925
414.705811	28.330429
414.869934	28.337264
415.034027	28.343117
415.198120	28.352783
415.362213	28.398488
415.526276	28.403845
415.690338	28.397476
415.854431	28.445671
416.018463	28.452355
416.182526	28.463452
416.346558	28.480442
416.510620	28.497117
416.674622	28.489423
416.838654	28.486027
417.002686	28.492855
417.166687	28.500630
417.330688	28.527101
417.494690	28.542456
417.658661	28.547949
417.822662	28.539679
417.986633	28.561236
418.150604	28.566974
418.314545	28.588809
418.478516	28.589043
418.642456	28.562071
418.806396	28.572245
418.970337	28.585265
419.134247	28.583475
419.298187	28.563974
419.462097	28.582573
419.625977	28.606366
419.789886	28.612973
419.953766	28.616124
420.117676	28.642250
420.281555	28.664122
420.445404	28.661981
420.609283	28.666315
420.773132	28.674859
420.936981	28.701285
421.100830	28.713735
421.264648	28.716452
421.428497	28.731075
421.592316	28.737802
421.756134	28.720613
421.919922	28.753252
422.083740	28.747014
422.247528	28.765895
422.411316	28.766950
422.575104	28.796267
422.738861	28.792099
422.902618	28.802133
423.066406	28.820244
423.230133	28.823472
423.393890	28.818780
423.557617	28.811747
423.721344	28.837685
423.885071	28.860331
424.048798	28.870373
424.212524	28.869137
424.376221	28.872058
424.539917	28.860471
424.703583	28.855276
424.867279	28.868558
425.030945	28.892296
425.194611	28.907063
425.358276	28.913003
425.521942	28.926482
425.685577	28.942418
425.849213	28.960922
426.012848	28.982590
426.176483	28.983090
426.340118	28.993972
426.503723	29.005915
426.667328	28.997653
426.830933	29.017883
426.994507	29.038976
427.158112	29.015291
427.321686	29.023895
427.485229	29.021336
427.648804	29.036953
427.812378	29.078796
427.975922	29.093930
428.139465	29.107257
428.302979	29.113753
428.466522	29.107771
428.630035	29.123838
428.793549	29.128065
428.957062	29.106415
429.120575	29.126369
429.284058	29.130766
429.447540	29.145202
429.611023	29.155186
429.774506	29.158966
429.937958	29.189985
430.101410	29.203787
430.264862	29.184832
430.428314	29.186568
430.591736	29.177105
430.755188	29.195929
430.918610	29.205744
431.082031	29.203939
431.245422	29.214461
431.408813	29.230613
431.572235	29.253971
431.735596	29.263819
431.898987	29.268989
432.062378	29.281000
432.225739	29.302822
432.389099	29.312724
432.552429	29.334953
432.715790	29.365799
432.879120	29.359676
433.042450	29.385327
433.205780	29.417545
433.369110	29.427545
433.532410	29.442662
433.695709	29.505683
433.859009	29.537187
434.022308	29.556216
434.185577	29.589789
434.348846	29.613909
434.512115	29.599015
434.675385	29.586220
434.838654	29.590655
435.001892	29.599088
435.165131	29.603405
435.328369	29.612969
435.491577	29.645082
435.654816	29.624317
435.818024	29.615939
435.981232	29.604740
436.144409	29.619731
436.307617	29.639343
436.470795	29.637142
436.633972	29.638134
436.797119	29.679309
436.960297	29.656782
437.123444	29.667441
437.286591	29.695520
437.449738	29.652837
437.612885	29.646579
437.776001	29.674574
437.939117	29.713213
438.102234	29.721877
438.265350	29.731361
438.428436	29.724997
438.591522	29.732335
438.754608	29.716425
438.917694	29.720721
439.080750	29.730102
439.243835	29.719518
439.406891	29.731727
439.569916	29.729156
439.732971	29.720779
439.895996	29.735057
440.059021	29.714379
440.222046	29.723856
440.385071	29.743185
440.548065	29.738678
440.711060	29.779892
440.874054	29.792133
441.037048	29.790804
441.200012	29.778182
441.363007	29.792610
441.525970	29.822710
441.688904	29.853923
441.851868	29.853155
442.014801	29.851599
442.177734	29.873239
442.340668	29.889312
442.503601	29.922842
442.666504	29.915513
442.829407	29.914841
442.992310	29.933387
443.155212	29.946878
443.318085	29.953408
443.480957	29.953446
443.643829	29.955973
443.806702	29.959578
443.969543	29.966446
444.132416	29.971346
444.295258	30.007345
444.458069	30.022789
444.620911	30.013699
444.783722	29.981507
444.946533	30.005278
445.109344	30.027808
445.272156	30.041333
445.434937	30.047403
445.597717	30.053678
445.760498	30.057198
445.923279	30.085917
446.086060	30.107623
446.248810	30.104613
446.411560	30.130757
446.574280	30.152322
446.737030	30.169829
446.899750	30.175554
447.062469	30.175471
447.225189	30.199059
447.387909	30.203989
447.550598	30.218514
447.713287	30.241577
447.875977	30.281065
448.038666	30.326791
448.201324	30.330999
448.363983	30.343955
448.526642	30.363410
448.689301	30.377866
448.851929	30.374500
449.014587	30.377304
449.177216	30.373827
449.339813	30.377090
449.502441	30.392588
449.665039	30.360945
449.827637	30.356407
449.990234	30.380736
450.152832	30.396259
450.315399	30.420113
450.477966	30.410159
450.640533	30.423726
450.803101	30.434275
450.965637	30.414007
451.128174	30.396140
451.290710	30.390969
451.453247	30.387447
451.615784	30.367803
451.778290	30.385505
451.940796	30.394309
452.103302	30.435049
452.265778	30.442389
452.428253	30.457479
452.590729	30.470201
452.753204	30.482110
452.915680	30.494949
453.078125	30.502719
453.240570	30.496603
453.403015	30.484921
453.565460	30.513532
453.727875	30.513390
453.890289	30.527718
454.052704	30.520719
454.215118	30.556660
454.377533	30.557966
454.539917	30.566108
454.702301	30.581474
454.864685	30.629734
455.027039	30.644250
455.189392	30.660307
455.351746	30.661398
455.514099	30.690815
455.676453	30.705292
455.838776	30.693252
456.001099	30.695626
456.163422	30.714294
456.325745	30.692740
456.488037	30.697116
456.650330	30.677236
456.812622	30.659513
456.974915	30.689246
457.137177	30.694747
457.299469	30.705307
457.461731	30.706463
457.623962	30.729325
457.786224	30.740699
457.948456	30.765199
458.110687	30.753835
458.272919	30.732032
458.435150	30.723531
458.597351	30.742931
458.759552	30.731654
458.921753	30.725293
459.083923	30.760134
459.246124	30.760581
459.408295	30.768180
459.570465	30.793665
459.732635	30.823116
459.894775	30.855602
460.056915	30.876574
460.219055	30.864161
460.381195	30.874769
460.543304	30.861491
460.705444	30.858281
460.867554	30.862266
461.029633	30.868584
461.191742	30.847695
461.353821	30.883410
461.515900	30.914309
461.677979	30.944885
461.840057	30.919695
462.002106	30.913492
462.164154	30.931512
462.326202	30.911831
462.488251	30.940560
462.650269	30.956848
462.812286	30.980144
462.974304	30.975180
463.136322	30.964270
463.298309	30.960046
463.460297	30.983625
463.622284	31.007141
463.784271	31.027977
463.946259	31.038742
464.108215	31.081934
464.270172	31.084635
464.432129	31.091620
464.594055	31.063332
464.755981	31.055361
464.917908	31.058690
465.079834	31.063568
465.241760	31.077346
465.403656	31.088106
465.565552	31.090427
465.727448	31.092343
465.889343	31.086042
466.051208	31.110414
466.213074	31.108098
466.374939	31.137886
466.536804	31.156540
466.698639	31.154282
466.860504	31.135603
467.022308	31.144836
467.184143	31.172709
467.345978	31.126372
467.507782	31.148058
467.669586	31.182581
467.831390	31.172828
467.993164	31.177639
468.154938	31.175737
468.316711	31.188921
468.478485	31.214370
468.640259	31.200715
468.802002	31.229171
468.963745	31.235182
469.125488	31.246927
469.287231	31.250794
469.448944	31.232312
469.610657	31.227528
469.772369	31.227213
469.934082	31.215508
470.095764	31.237894
470.257446	31.237850
470.419128	31.217891
470.580811	31.246802
470.742462	31.247313
470.904144	31.235742
471.065796	31.270788
471.227417	31.298527
471.389069	31.291886
471.550690	31.310914
471.712311	31.317383
471.873932	31.334783
472.035522	31.320100
472.197144	31.316242
472.358734	31.340058
472.520294	31.337988
472.681885	31.385135
472.843445	31.426383
473.005005	31.448039
473.166565	31.529079
473.328125	31.519982
473.489655	31.539061
473.651184	31.552318
473.812714	31.536226
473.974243	31.534568
474.135742	31.545236
474.297241	31.522333
474.458740	31.527665
474.620239	31.539752
474.781738	31.556216
474.943207	31.550035
475.104675	31.558733
475.266113	31.570899
475.427582	31.587532
475.589020	31.562005
475.750458	31.557561
475.911896	31.543833
476.073303	31.522957
476.234741	31.510709
476.396149	31.487518
476.557526	31.513207
476.718933	31.518779
476.880310	31.565545
477.041687	31.592746
477.203064	31.637415
477.364441	31.632294
477.525787	31.641801
477.687134	31.620646
477.848480	31.618279
478.009827	31.594364
478.171143	31.594989
478.332458	31.609912
478.493774	31.627936
478.655090	31.632304
478.816376	31.645203
478.977661	31.662471
479.138947	31.667660
479.300232	31.665876
479.461487	31.679397
479.622772	31.655934
479.784027	31.664318
479.945251	31.663764
480.106506	31.633652
480.267731	31.663718
480.428955	31.635011
480.590179	31.650506
480.751373	31.684696
480.912567	31.726059
481.073761	31.739889
481.234955	31.761851
481.396149	31.780999
481.557312	31.789879
481.718475	31.786593
481.879639	31.795890
482.040802	31.805600
482.201935	31.808390
482.363068	31.798733
482.524200	31.812820
482.685303	31.812751
482.846436	31.800113
483.007538	31.800645
483.168640	31.820401
483.329712	31.821164
483.490814	31.799817
483.651886	31.796486
483.812958	31.816217
483.973999	31.813595
484.135071	31.786980
484.296112	31.809874
484.457153	31.823920
484.618195	31.823152
484.779205	31.809688
484.940216	31.832010
485.101227	31.847872
485.262238	31.872575
485.423218	31.860703
485.584229	31.893606
485.745209	31.921565
485.906158	31.933520
486.067139	31.987856
486.228088	31.979917
486.389038	31.980747
486.549988	31.996186
486.710907	31.987299
486.871857	31.978355
487.032776	31.972129
487.193665	31.966640
487.354584	31.989608
487.515472	31.991649
487.676361	31.993656
487.837250	32.007983
487.998138	32.018579
488.158997	32.020365
488.319855	32.012720
488.480713	31.993752
488.641541	32.005056
488.802399	32.020544
488.963226	32.035168
489.124054	32.050788
489.284851	32.026554
489.445679	32.022575
489.606476	32.028843
489.767273	32.014725
489.928040	32.028473
490.088837	32.077310
490.249603	32.080122
490.410370	32.102603
490.571106	32.102298
490.731873	32.123659
490.892609	32.136004
491.053345	32.145248
491.214081	32.172514
491.374786	32.172378
491.535492	32.177781
491.696198	32.178679
491.856903	32.195785
492.017578	32.197685
492.178284	32.169858
492.338959	32.134911
492.499603	32.160558
492.660278	32.200079
492.820923	32.196131
492.981567	32.211983
493.142212	32.247655
493.302826	32.217120
493.463440	32.236060
493.624054	32.238538
493.784668	32.264253
493.945282	32.260935
494.105865	32.269254
494.266449	32.240924
494.427032	32.241974
494.587585	32.242512
494.748169	32.243605
494.908722	32.253239
495.069244	32.250606
495.229797	32.233504
495.390320	32.229661
495.550842	32.272933
495.711365	32.272610
495.871887	32.263980
496.032379	32.282864
496.192871	32.296641
496.353363	32.278020
496.513855	32.321886
496.674316	32.328503
496.834778	32.349287
496.995239	32.360883
497.155670	32.370942
497.316132	32.358842
497.476562	32.403763
497.636993	32.397609
497.797394	32.412761
497.957825	32.431360
498.118225	32.452502
498.278625	32.458697
498.438995	32.464354
498.599396	32.494403
498.759766	32.480042
498.920135	32.525040
499.080475	32.513877
499.240845	32.533496
499.401184	32.537645
499.561523	32.538731
499.721832	32.538348
499.882172	32.523073
500.042480	32.532854
500.202789	32.517015
500.363098	32.493258
500.523376	32.518827
500.683655	32.508165
500.843933	32.531176
501.004211	32.552492
501.164459	32.555463
501.324707	32.520924
501.484955	32.543550
501.645203	32.558288
501.805420	32.568210
501.965668	32.611351
502.125885	32.604871
502.286072	32.618682
502.446289	32.633801
502.606476	32.630117
502.766663	32.656005
502.926849	32.663243
503.087006	32.663271
503.247162	32.638428
503.407318	32.627813
503.567474	32.634593
503.727600	32.619582
503.887756	32.624710
504.047882	32.630492
504.207977	32.635985
504.368103	32.616757
504.528198	32.664320
504.688293	32.659727
504.848389	32.644666
505.008453	32.637891
505.168549	32.615158
505.328613	32.589532
505.488647	32.605707
505.648712	32.570341
505.808746	32.605352
505.968781	32.599924
506.128815	32.579953
506.288818	32.598227
506.448853	32.598078
506.608856	32.628818
506.768829	32.618294
506.928833	32.631612
507.088806	32.657671
507.248779	32.642227
507.408752	32.631561
507.568695	32.685026
507.728668	32.663643
507.888611	32.691981
508.048523	32.736561
508.208466	32.751136
508.368378	32.762543
508.528290	32.784482
508.688202	32.782648
508.848114	32.807523
509.007996	32.780904
509.167877	32.806690
509.327759	32.819963
509.487610	32.843637
509.647461	32.899508
509.807312	32.877786
509.967163	32.925365
510.127014	32.934441
510.286835	32.912480
510.446655	32.915629
510.606476	32.936900
510.766266	32.898872
510.926086	32.919524
511.085876	32.919929
511.245667	32.899471
511.405426	32.896695
511.565186	32.910328
511.724945	32.885406
511.884705	32.884532
512.044434	32.864956
512.204163	32.868113
512.363953	32.865082
512.523621	32.896959
512.683350	32.877315
512.843079	32.850543
513.002747	32.869769
513.162476	32.860750
513.322144	32.844489
513.481812	32.864675
513.641479	32.894776
513.801147	32.902469
513.960815	32.943452
514.120422	32.949354
514.280090	32.944042
514.439697	32.981153
514.599365	32.974819
514.758972	32.979725
514.918579	32.960297
515.078186	32.971881
515.237732	32.997817
515.397339	33.017880
515.556946	33.006273
515.716492	33.015539
515.876038	33.048780
516.035583	33.034370
516.195129	33.062239
516.354675	33.058568
516.514221	33.106869
516.673767	33.113759
516.833252	33.086028
516.992798	33.056104
517.152283	33.074200
517.311768	33.079098
517.471252	33.101178
517.630737	33.073252
517.790222	33.103363
517.949646	33.064256
518.109131	33.103164
518.268555	33.134320
518.427979	33.111777
518.587463	33.122618
518.746887	33.126771
518.906250	33.088168
519.065674	33.100293
519.225098	33.137380
519.384460	33.138813
519.543884	33.148418
519.703247	33.117823
519.862610	33.102815
520.021973	33.183664
520.181335	33.221233
520.340698	33.191169
520.500000	33.200669
520.659363	33.172381
520.818665	33.182455
520.977966	33.216769
521.137329	33.243461
521.296631	33.243528
521.455872	33.241793
521.615173	33.303551
521.774475	33.267466
521.933716	33.255498
522.093018	33.285083
522.252258	33.287548
522.411499	33.295288
522.570740	33.289039
522.729980	33.316643
522.889221	33.358258
523.048401	33.403006
523.207642	33.352289
523.366821	33.345926
523.526001	33.339679
523.685181	33.356818
523.844360	33.404021
524.003540	33.463700
524.162720	33.439186
524.321838	33.452350
524.481018	33.470456
524.640137	33.463514
524.799316	33.454145
524.958435	33.504730
525.117554	33.512621
525.276611	33.501254
525.435730	33.507893
525.594849	33.493126
525.753906	33.484311
525.912964	33.471005
526.072083	33.449026
526.231140	33.446758
526.390198	33.454504
526.549255	33.507491
526.708252	33.529075
526.867310	33.545622
527.026306	33.532937
527.185364	33.492365
527.344360	33.511166
527.503357	33.557901
527.662354	33.559012
527.821350	33.597136
527.980286	33.577091
528.139282	33.571284
528.298218	33.610695
528.457214	33.611528
528.616150	33.574664
528.775085	33.608815
528.934021	33.624665
529.092896	33.624991
529.251831	33.615838
529.410767	33.601031
529.569641	33.635270
529.728516	33.619258
529.887451	33.570745
530.046326	33.560106
530.205200	33.532786
530.364014	33.543072
530.522888	33.530807
530.681702	33.460239
530.840576	33.454848
530.999390	33.414307
531.158203	33.427760
531.317017	33.412317
531.475830	33.376251
531.634644	33.386164
531.793457	33.397640
531.952209	33.387102
532.110962	33.382377
532.269775	33.379762
532.428528	33.364270
532.587280	33.356716
532.746033	33.337458
532.904724	33.338615
533.063477	33.382437
533.222229	33.365736
533.380920	33.412694
533.539612	33.458703
533.698303	33.467396
533.856995	33.513506
534.015686	33.567965
534.174377	33.616662
534.333008	33.631157
534.491699	33.627652
534.650330	33.622660
534.808960	33.648464
534.967651	33.703739
535.126221	33.685897
535.284851	33.706275
535.443481	33.729929
535.602112	33.776099
535.760681	33.784286
535.919250	33.741634
536.077881	33.727377
536.236450	33.757151
536.395020	33.778523
536.553528	33.756081
536.712097	33.725477
536.870667	33.805560
537.029175	33.839664
537.187683	33.795017
537.346191	33.802569
537.504700	33.810435
537.663208	33.853499
537.821716	33.917172
537.980225	33.898349
538.138672	33.871816
538.297180	33.927438
538.455627	33.946602
538.614075	33.968140
538.772522	34.031788
538.930969	34.043046
539.089417	34.123218
539.247803	34.160481
539.406250	34.176308
539.564636	34.192528
539.723083	34.190485
539.881470	34.216133
540.039856	34.137112
540.198242	34.106152
540.356567	34.131488
540.514954	34.078860
540.673279	34.102740
540.831665	34.111381
540.989990	34.043618
541.148315	34.121298
541.306641	34.117695
541.464966	34.084484
541.623291	34.080300
541.781555	34.044779
541.939880	33.999308
542.098145	34.042288
542.256409	33.998558
542.414673	33.978689
542.572937	33.956933
542.731201	33.946290
542.889465	33.969388
543.047668	33.964426
543.205933	33.996281
543.364136	34.039697
543.522339	34.045196
543.680542	34.053869
543.838745	34.015540
543.996948	34.007229
544.155090	34.082655
544.313293	34.038189
544.471436	34.060652
544.629639	34.092271
544.787781	34.059954
544.945923	34.081452
545.104065	34.053441
545.262146	34.062179
545.420288	34.136302
545.578369	34.116694
545.736511	34.108489
545.894592	34.125049
546.052673	34.098551
546.210754	34.055292
546.368835	34.021726
546.526917	34.036249
546.684937	34.051406
546.843018	34.037702
547.001038	34.065047
547.159058	34.043663
547.317078	34.050917
547.475098	34.006076
547.633118	34.015735
547.791138	34.017578
547.949097	34.062094
548.107117	34.097525
548.265076	34.095201
548.423035	34.048289
548.580994	34.024901
548.738953	34.054125
548.896912	34.112134
549.054810	34.160005
549.212769	34.195581
549.370667	34.201271
549.528625	34.219262
549.686523	34.219574
549.844421	34.184395
550.002319	34.261964
550.160156	34.272321
550.318054	34.341145
550.475891	34.338084
550.633789	34.385827
550.791626	34.415746
550.949463	34.409529
551.107300	34.384341
551.265137	34.401894
551.422974	34.412426
551.580750	34.469301
551.738586	34.441784
551.896362	34.430173
552.054138	34.322394
552.211914	34.307669
552.369690	34.335605
552.527466	34.385314
552.685242	34.433148
552.842957	34.423808
553.000671	34.436420
553.158447	34.435221
553.316162	34.428568
553.473877	34.488814
553.631592	34.505812
553.789307	34.604453
553.946960	34.565568
554.104675	34.599015
554.262329	34.603777
554.419983	34.609813
554.577637	34.642280
554.735291	34.648458
554.892944	34.624329
555.050598	34.691839
555.208252	34.744135
555.365845	34.716187
555.523438	34.698982
555.681030	34.752201
555.838684	34.659267
555.996216	34.603072
556.153809	34.632502
556.311401	34.614411
556.468994	34.661818
556.626526	34.536348
556.784058	34.548365
556.941589	34.455350
557.099121	34.480936
557.256653	34.479241
557.414185	34.515066
557.571716	34.514583
557.729187	34.520455
557.886719	34.447321
558.044189	34.412831
558.201660	34.459890
558.359131	34.426141
558.516602	34.487841
558.674011	34.462459
558.831482	34.441859
558.988892	34.576866
559.146362	34.616630
559.303772	34.604456
559.461182	34.618063
559.618591	34.583735
559.776001	34.682544
559.933350	34.671722
560.090759	34.794349
560.248108	34.820634
560.405518	34.806021
560.562866	34.779259
560.720215	34.733265
560.877563	34.742720
561.034851	34.766448
561.192200	34.856636
561.349548	34.788384
561.506836	34.932660
561.664124	34.956847
561.821411	35.075647
561.978699	35.155514
562.135986	35.192756
562.293274	35.255562
562.450500	35.281687
562.607788	35.321939
562.765015	35.396437
562.922241	35.442952
563.079468	35.359376
563.236694	35.252172
563.393921	35.245498
563.551147	35.334126
563.708313	35.363752
563.865540	35.383822
564.022705	35.333762
564.179871	35.493824
564.337036	35.389420
564.494202	35.377096
564.651367	35.318753
564.808472	35.338213
564.965637	35.265679
565.122742	35.164321
565.279846	35.161792
565.436951	35.105549
565.594055	35.081416
565.751160	35.056481
565.908264	34.987846
566.065308	34.893703
566.222412	35.071335
566.379456	35.041341
566.536499	34.966756
566.693542	34.913144
566.850586	34.900667
567.007629	34.850885
567.164673	34.800322
567.321655	34.697495
567.478699	34.914646
567.635681	34.969118
567.792664	35.007576
567.949646	34.899159
568.106628	34.774380
568.263611	34.878972
568.420532	34.809586
568.577515	34.784892
568.734436	34.803452
568.891357	34.830147
569.048279	34.901796
569.205200	34.979708
569.362122	34.972421
569.518982	34.997669
569.675903	35.052079
569.832764	35.014090
569.989685	35.065433
570.146545	35.156569
570.303406	35.306168
570.460266	35.359842
570.617065	35.327425
570.773926	35.292242
570.930786	35.256129
571.087585	35.319675
571.244385	35.473023
571.401184	35.468782
571.557983	35.480323
571.714783	35.536525
571.871582	35.601777
572.028320	35.635326
572.185120	35.613629
572.341858	35.567613
572.498596	35.487890
572.655334	35.544582
572.812073	35.503949
572.968811	35.562727
573.125488	35.639872
573.282227	35.667358
573.438904	35.723682
573.595581	35.728276
573.752258	35.682936
573.908936	35.690768
574.065613	35.729849
574.222290	35.762114
574.378906	35.719663
574.535583	35.720458
574.692200	35.703970
574.848816	35.662431
575.005432	35.658530
575.162048	35.655262
575.318665	35.644957
575.475281	35.686286
575.631836	35.693083
575.788452	35.690120
575.945007	35.799836
576.101562	35.880275
576.258118	35.741365
576.414673	35.716091
576.571167	35.709609
576.727722	35.699021
576.884216	35.630559
577.040771	35.688969
577.197266	35.724082
577.353760	35.713343
577.510254	35.761771
577.666748	35.765938
577.823181	35.814012
577.979675	35.896711
578.136108	35.913267
578.292542	35.891500
578.449036	35.908884
578.605469	35.847831
578.761841	35.947991
578.918274	36.028182
579.074707	35.978580
579.231079	35.878885
579.387451	35.942137
579.543884	35.953603
579.700256	35.912450
579.856628	35.926983
580.012939	36.021415
580.169312	36.117620
580.325684	36.122018
580.481995	36.156601
580.638306	36.196175
580.794617	36.103230
580.950928	36.075968
581.107239	36.110381
581.263550	36.120932
581.419800	36.140591
581.576111	36.168909
581.732361	36.216828
581.888611	36.190429
582.044861	36.158262
582.201111	36.214481
582.357361	36.253993
582.513611	36.288103
582.669800	36.345278
582.826050	36.415638
582.982239	36.410258
583.138428	36.381874
583.294617	36.248964
583.450806	36.217625
583.606995	36.149983
583.763123	36.073149
583.919312	36.122556
584.075439	36.184222
584.231567	36.119176
584.387695	36.018389
584.543823	36.014246
584.699951	36.018048
584.856018	36.004051
585.012146	35.970629
585.168213	35.955373
585.324341	35.952773
585.480408	35.931412
585.636475	35.884194
585.792480	35.882588
585.948547	35.871617
586.104614	35.852344
586.260620	35.938433
586.416626	35.986592
586.572693	36.016164
586.728699	35.988869
586.884705	36.121989
587.040649	36.128220
587.196655	36.081496
587.352600	36.078439
587.508606	36.140589
587.664551	36.157785
587.820496	36.176519
587.976440	36.175890
588.132385	36.114275
588.288330	36.171295
588.444214	36.203208
588.600159	36.265128
588.756042	36.293969
588.911926	36.236894
589.067810	36.227705
589.223694	36.289271
589.379578	36.289882
589.535400	36.277374
589.691284	36.266836
589.847107	36.265046
590.002930	36.208863
590.158752	36.183189
590.314575	36.192619
590.470398	36.288125
590.626221	36.330429
590.781982	36.314856
590.937805	36.321949
591.093567	36.331726
591.249329	36.413164
591.405090	36.388541
591.560852	36.322470
591.716614	36.355056
591.872375	36.416848
592.028076	36.449175
592.183777	36.374591
592.339539	36.359812
592.495239	36.387141
592.650940	36.418546
592.806580	36.433892
592.962280	36.488860
593.117920	36.460370
593.273621	36.480046
593.429260	36.523528
593.584900	36.477710
593.740540	36.554417
593.896179	36.537245
594.051819	36.526970
594.207397	36.565156
594.363037	36.611763
594.518616	36.646612
594.674194	36.700969
594.829773	36.659556
594.985352	36.627440
595.140930	36.615220
595.296509	36.750415
595.452026	36.771777
595.607605	36.743621
595.763123	36.724828
595.918640	36.782029
596.074158	36.786164
596.229675	36.852401
596.385132	36.939686
596.540649	36.910062
596.696106	37.008605
596.851624	36.946516
597.007080	36.913957
597.162537	36.954758
597.317993	36.938086
597.473389	36.892961
597.628845	36.858723
597.784241	36.822094
597.939697	36.834718
598.095093	36.847910
598.250488	36.901540
598.405884	36.857767
598.561279	36.860667
598.716614	36.870901
598.872009	36.920503
599.027344	36.871326
599.182739	36.915504
599.338074	36.908261
599.493408	36.857552
599.648682	36.866298
599.804016	36.786071
599.959351	36.793813
600.114624	36.874054
600.269958	36.882301
600.425232	36.949451
600.580505	36.977778
600.735779	36.855395
600.890991	36.858111
601.046265	36.863212
601.201477	36.792981
601.356750	36.764758
601.511963	36.667803
601.667175	36.676559
601.822388	36.678746
601.977600	36.601789
602.132812	36.600344
602.287964	36.597655
602.443115	36.616751
602.598328	36.620494
602.753479	36.660632
602.908630	36.620876
603.063782	36.548558
603.218872	36.552457
603.374023	36.495277
603.529114	36.497245
603.684265	36.500300
603.839355	36.675023
603.994446	36.737554
604.149536	36.748213
604.304626	36.828386
604.459656	36.873711
604.614746	36.948855
604.769775	36.921937
604.924805	36.906176
605.079834	37.002881
605.234863	37.089844
605.389893	37.078795
605.544922	37.121181
605.699890	37.158637
605.854919	37.139680
606.009888	37.178769
606.164856	37.207182
606.319824	37.258777
606.474792	37.233292
606.629761	37.185582
606.784668	37.153400
606.939636	37.083750
607.094543	37.105221
607.249451	37.053957
607.404358	37.063352
607.559265	37.055544
607.714172	37.128208
607.869080	37.159170
608.023926	37.174617
608.178772	37.194028
608.333679	37.101146
608.488525	37.085211
608.643372	37.033136
608.798218	36.970468
608.953003	36.962049
609.107849	36.952311
609.262634	37.010387
609.417419	37.026182
609.572266	37.041630
609.726990	37.093251
609.881775	37.109848
610.036560	37.080677
610.191345	36.985971
610.346069	36.975107
610.500793	36.993560
610.655579	37.068188
610.810303	36.954492
610.964966	36.910358
611.119690	36.905123
611.274414	36.892062
611.429077	37.006854
611.583801	37.104190
611.738464	37.169283
611.893127	37.231599
612.047791	37.305366
612.202454	37.367504
612.357056	37.394201
612.511719	37.367097
612.666321	37.450610
612.820923	37.437202
612.975586	37.504961
613.130188	37.540213
613.284729	37.529889
613.439331	37.571011
613.593933	37.497923
613.748474	37.339201
613.903015	37.364481
614.057556	37.490535
614.212097	37.489636
614.366638	37.442092
614.521179	37.358827
614.675720	37.349314
614.830200	37.300137
614.984680	37.320798
615.139221	37.371195
615.293701	37.355843
615.448181	37.235060
615.602600	37.311144
615.757080	37.337454
615.911499	37.298666
616.065979	37.347904
616.220398	37.403323
616.374817	37.445021
616.529236	37.491046
616.683655	37.625763
616.838074	37.652822
616.992432	37.672949
617.146851	37.616934
617.301208	37.589146
617.455566	37.532743
617.609924	37.561518
617.764282	37.508627
617.918579	37.520822
618.072937	37.558335
618.227234	37.505884
618.381592	37.523838
618.535889	37.546291
618.690186	37.444183
618.844482	37.478650
618.998718	37.567137
619.153015	37.552453
619.307312	37.516775
619.461548	37.577470
619.615784	37.624829
619.770020	37.603448
619.924255	37.622007
620.078491	37.637448
620.232666	37.671506
620.386902	37.695556
620.541077	37.825498
620.695251	37.853609
620.849487	37.937687
621.003601	37.934448
621.157776	37.918209
621.311951	37.931064
621.466064	37.889317
621.620239	38.013225
621.774353	38.044840
621.928467	37.951094
622.082581	37.889398
622.236694	37.820567
622.390808	37.824928
622.544861	37.795778
622.698975	37.734184
622.853027	37.769783
623.007080	37.835423
623.161133	37.947287
623.315186	37.899772
623.469238	37.958589
623.623230	37.942920
623.777283	37.903313
623.931274	37.892081
624.085266	37.846231
624.239258	37.829339
624.393250	37.878187
624.547241	37.960484
624.701233	37.885235
624.855164	37.899747
625.009094	37.951830
625.163086	38.039870
625.317017	38.100457
625.470947	38.084626
625.624817	38.113306
625.778748	38.103225
625.932617	38.144454
626.086548	38.164790
626.240417	38.098054
626.394287	38.120473
626.548157	38.126919
626.702026	38.136054
626.855896	38.118139
627.009705	38.116188
627.163574	38.101729
627.317383	38.129616
627.471191	38.072559
627.625000	38.123696
627.778809	38.242324
627.932556	38.240014
628.086365	38.179280
628.240112	38.075556
628.393921	37.996190
628.547668	37.996772
628.701416	38.027846
628.855164	38.048037
629.008850	37.978436
629.162598	37.999122
629.316284	38.027541
629.470032	38.018916
629.623718	38.082899
629.777405	38.082022
629.931091	38.218947
630.084778	38.259069
630.238403	38.336237
630.392090	38.316847
630.545715	38.301143
630.699341	38.274309
630.852966	38.217156
631.006592	38.199256
631.160217	38.256687
631.313843	38.359920
631.467407	38.432982
631.620972	38.514642
631.774597	38.550884
631.928162	38.570146
632.081726	38.590939
632.235229	38.601541
632.388794	38.580593
632.542358	38.573784
632.695862	38.527912
632.849365	38.519903
633.002869	38.352612
633.156372	38.302917
633.309875	38.312724
633.463379	38.336166
633.616821	38.395571
633.770325	38.343830
633.923767	38.297902
634.077209	38.371559
634.230652	38.414061
634.384094	38.365942
634.537537	38.364340
634.690918	38.349734
634.844299	38.294761
634.997742	38.314670
635.151123	38.222384
635.304504	38.181136
635.457886	38.228985
635.611206	38.247949
635.764587	38.231635
635.917908	38.237730
636.071289	38.376696
636.224609	38.375271
636.377930	38.403828
636.531250	38.416870
636.684570	38.437933
636.837830	38.449244
636.991150	38.468482
637.144409	38.462813
637.297668	38.329035
637.450928	38.268082
637.604187	38.283262
637.757446	38.259680
637.910645	38.340774
638.063904	38.395243
638.217102	38.530673
638.370300	38.545741
638.523499	38.506871
638.676697	38.513588
638.829895	38.487945
638.983093	38.531421
639.136230	38.476502
639.289429	38.504832
639.442566	38.430215
639.595703	38.446101
639.748840	38.436770
639.901978	38.473592
640.055054	38.469435
640.208191	38.465945
640.361267	38.536023
640.514343	38.636372
640.667419	38.589902
640.820496	38.695039
640.973572	38.635431
641.126648	38.543670
641.279663	38.479938
641.432739	38.550372
641.585754	38.527725
641.738770	38.565481
641.891785	38.635168
642.044800	38.575614
642.197754	38.581870
642.350769	38.585053
642.503723	38.720879
642.656738	38.772617
642.809692	38.699400
642.962646	38.713903
643.115540	38.772169
643.268494	38.809345
643.421448	38.879188
643.574341	38.902253
643.727234	39.044073
643.880127	38.984912
644.033020	39.057926
644.185913	39.062947
644.338806	39.046606
644.491699	39.020637
644.644531	39.007289
644.797363	39.022687
644.950195	39.028723
645.103027	39.103639
645.255859	39.143183
645.408691	39.122275
645.561462	39.112686
645.714294	39.035580
645.867065	39.046460
646.019836	38.949303
646.172607	38.933848
646.325378	38.888356
646.478149	38.849897
646.630859	38.831481
646.783630	38.752958
646.936340	38.755238
647.089050	38.712531
647.241760	38.728011
647.394470	38.791310
647.547180	38.793288
647.699829	38.861048
647.852539	38.832824
648.005188	38.792714
648.157837	38.762060
648.310486	38.774136
648.463135	38.814408
648.615784	38.733519
648.768433	38.768005
648.921021	38.752727
649.073608	38.803731
649.226257	38.825750
649.378845	38.890675
649.531372	38.890830
649.683960	38.897931
649.836548	38.855538
649.989075	38.830753
650.141663	38.822980
650.294189	38.852829
650.446716	38.865767
650.599243	38.825228
650.751709	38.773403
650.904236	38.801070
651.056702	38.818372
651.209229	38.863398
651.361694	38.834853
651.514160	38.798949
651.666626	38.867582
651.819092	38.850721
651.971497	38.871396
652.123962	38.883986
652.276367	38.908379
652.428772	38.877737
652.581177	38.916736
652.733582	38.949852
652.885986	38.977319
653.038330	39.029318
653.190735	39.044216
653.343079	39.026193
653.495422	38.998116
653.647827	39.023364
653.800110	39.087771
653.952454	39.052729
654.104797	39.049326
654.257080	38.971245
654.409424	38.980458
654.561707	39.044541
654.713989	39.035978
654.866272	38.985218
655.018555	39.040682
655.170776	39.068442
655.323059	39.056206
655.475281	39.010642
655.627502	38.978313
655.779724	38.965942
655.931946	39.013023
656.084167	38.984439
656.236328	38.952979
656.388550	38.938941
656.540710	38.917685
656.692871	38.904107
656.845093	38.866446
656.997192	38.898710
657.149353	38.867450
657.301514	38.864595
657.453613	38.797702
657.605774	38.783425
657.757874	38.797564
657.909973	38.854102
658.062073	38.868087
658.214172	38.817070
658.366211	38.822999
658.518311	38.859778
658.670349	38.871748
658.822388	38.837911
658.974426	38.814272
659.126465	38.802304
659.278503	38.857186
659.430481	38.917748
659.582520	38.911385
659.734497	38.936903
659.886475	38.987873
660.038452	38.974341
660.190430	39.035690
660.342407	39.108635
660.494385	39.224952
660.646301	39.232432
660.798279	39.217358
660.950195	39.200514
661.102112	39.175859
661.254028	39.322026
661.405884	39.292240
661.557800	39.295880
661.709717	39.305655
661.861572	39.370862
662.013428	39.365644
662.165283	39.426111
662.317139	39.398531
662.468994	39.350528
662.620789	39.350133
662.772644	39.304642
662.924438	39.262594
663.076233	39.259057
663.228027	39.209655
663.379822	39.200725
663.531616	39.138905
663.683411	39.159232
663.835144	39.162362
663.986877	39.183526
664.138611	39.136259
664.290344	39.028034
664.442078	39.037642
664.593811	39.053824
664.745544	39.039649
664.897217	38.993387
665.048889	38.975271
665.200623	38.983460
665.352295	39.019393
665.503967	39.097822
665.655579	39.131135
665.807251	39.181630
665.958862	39.215480
666.110535	39.261461
666.262146	39.326724
666.413757	39.314509
666.565369	39.419728
666.716919	39.379011
666.868530	39.380168
667.020081	39.388054
667.171692	39.387437
667.323242	39.372088
667.474792	39.419751
667.626343	39.448781
667.777832	39.478413
667.929382	39.482003
668.080872	39.532440
668.232422	39.514042
668.383911	39.549608
668.535400	39.542736
668.686890	39.597153
668.838318	39.615907
668.989807	39.641003
669.141235	39.623653
669.292725	39.624917
669.444153	39.591952
669.595581	39.552068
669.747009	39.576357
669.898376	39.588694
670.049805	39.602839
670.201172	39.696568
670.352539	39.738944
670.503967	39.704358
670.655273	39.638727
670.806641	39.653714
670.958008	39.635569
671.109375	39.611133
671.260681	39.640963
671.411987	39.632959
671.563293	39.633041
671.714600	39.581992
671.865906	39.590612
672.017212	39.552121
672.168457	39.580078
672.319763	39.567538
672.471008	39.610381
672.622253	39.600885
672.773499	39.632109
672.924744	39.660011
673.075928	39.663635
673.227173	39.691270
673.378357	39.711754
673.529541	39.727856
673.680786	39.752116
673.831909	39.748763
673.983093	39.801014
674.134277	39.869970
674.285400	39.871067
674.436584	39.818128
674.587708	39.804276
674.738831	39.827763
674.889954	39.838631
675.041077	39.825121
675.192139	39.805213
675.343262	39.793222
675.494324	39.813396
675.645386	39.787906
675.796448	39.797942
675.947510	39.793066
676.098572	39.780409
676.249634	39.719000
676.400635	39.714183
676.551636	39.712559
676.702698	39.721499
676.853699	39.732087
677.004639	39.717983
677.155640	39.674190
677.306641	39.673682
677.457581	39.701941
677.608521	39.694188
677.759521	39.701744
677.910461	39.677909
678.061401	39.677569
678.212280	39.691879
678.363220	39.699468
678.514099	39.696407
678.664978	39.732080
678.815918	39.701769
678.966797	39.652408
679.117615	39.660581
679.268494	39.698309
679.419373	39.721561
679.570190	39.773797
679.721008	39.803685
679.871826	39.792089
680.022644	39.794097
680.173462	39.787596
680.324280	39.811614
680.475037	39.790276
680.625854	39.818378
680.776611	39.831964
680.927368	39.835637
681.078125	39.857656
681.228882	39.873958
681.379639	39.895416
681.530334	39.884119
681.681030	39.882164
681.831787	39.845892
681.982483	39.880399
682.133179	39.888628
682.283813	39.833834
682.434509	39.788966
682.585205	39.757151
682.735840	39.712541
682.886475	39.733626
683.037109	39.739691
683.187744	39.771905
683.338379	39.788504
683.488953	39.843948
683.639587	39.778990
683.790161	39.790101
683.940735	39.809454
684.091309	39.872286
684.241882	39.839408
684.392456	39.812645
684.543030	39.791634
684.693542	39.740744
684.844055	39.755796
684.994568	39.748803
685.145081	39.785238
685.295593	39.829061
685.446106	39.866308
685.596619	39.908371
685.747070	39.951478
685.897522	39.916674
686.047974	39.940744
686.198425	39.907237
686.348877	39.888300
686.499329	39.838724
686.649719	39.942263
686.800171	39.914321
686.950562	39.881664
687.100952	39.833647
687.251343	39.828871
687.401733	39.877241
687.552124	39.866207
687.702454	39.920312
687.852783	39.985352
688.003174	40.022714
688.153503	39.977874
688.303833	39.985856
688.454102	39.968653
688.604431	39.922701
688.754700	39.908660
688.905029	39.933698
689.055298	39.928083
689.205566	39.918157
689.355835	39.886807
689.506104	39.950828
689.656311	39.927566
689.806580	39.929996
689.956787	39.963358
690.106995	40.001405
690.257202	40.012866
690.407410	39.962352
690.557617	39.973711
690.707764	40.019697
690.857971	39.974671
691.008118	39.997315
691.158264	40.058033
691.308411	40.086856
691.458557	40.089196
691.608704	40.142568
691.758789	40.207535
691.908936	40.239807
692.059021	40.229359
692.209106	40.293942
692.359192	40.310707
692.509277	40.286369
692.659302	40.303502
692.809387	40.317886
692.959412	40.313772
693.109436	40.267972
693.259460	40.259551
693.409485	40.294454
693.559509	40.358053
693.709534	40.308599
693.859497	40.330544
694.009521	40.301724
694.159485	40.228412
694.309448	40.216654
694.459412	40.245655
694.609314	40.233208
694.759277	40.171681
694.909180	40.152306
695.059143	40.198428
695.209045	40.232311
695.358948	40.235769
695.508850	40.233728
695.658691	40.200490
695.808594	40.261337
695.958435	40.285867
696.108337	40.344807
696.258179	40.402337
696.408020	40.472242
696.557800	40.401281
696.707642	40.442556
696.857483	40.489124
697.007263	40.486298
697.157043	40.516029
697.306824	40.528689
697.456604	40.545448
697.606384	40.501350
697.756165	40.485204
697.905884	40.482831
698.055603	40.464568
698.205383	40.444060
698.355103	40.438474
698.504822	40.461384
698.654480	40.501674
698.804199	40.481741
698.953857	40.513582
699.103577	40.526875
699.253235	40.524259
699.402893	40.449797
699.552551	40.515787
699.702148	40.502153
699.851807	40.494803
700.001404	40.566349
700.151062	40.590566
700.300659	40.617438
700.450256	40.565157
700.599792	40.604373
700.749390	40.617920
700.898987	40.616697
701.048523	40.606817
701.198059	40.611421
701.347595	40.638792
701.497131	40.593470
701.646667	40.566601
701.796204	40.528390
701.945679	40.444434
702.095154	40.385119
702.244690	40.388691
702.394165	40.453428
702.543640	40.416921
702.693054	40.426721
702.842529	40.446216
702.991943	40.372363
703.141418	40.319778
703.290833	40.233456
703.440247	40.246319
703.589661	40.261048
703.739014	40.277247
703.888428	40.311562
704.037781	40.369284
704.187134	40.378047
704.336487	40.313710
704.485840	40.365137
704.635193	40.381608
704.784546	40.414827
704.933838	40.463063
705.083191	40.508745
705.232483	40.479941
705.381775	40.428751
705.531067	40.440239
705.680359	40.448513
705.829590	40.418502
705.978882	40.407548
706.128113	40.458299
706.277344	40.483840
706.426575	40.573323
706.575806	40.538534
706.725037	40.515364
706.874207	40.500291
707.023438	40.451380
707.172607	40.442557
707.321777	40.520660
707.470947	40.506225
707.620117	40.473256
707.769287	40.485467
707.918396	40.470165
708.067505	40.508130
708.216675	40.524370
708.365784	40.534237
708.514893	40.573795
708.663940	40.513039
708.813049	40.495221
708.962097	40.503044
709.111206	40.523117
709.260254	40.567490
709.409302	40.482556
709.558350	40.535907
709.707397	40.591599
709.856384	40.612124
710.005432	40.615284
710.154419	40.562433
710.303406	40.538906
710.452393	40.537541
710.601379	40.562704
710.750305	40.536423
710.899292	40.582156
711.048218	40.536955
711.197205	40.532422
711.346130	40.533773
711.495056	40.512035
711.643921	40.547007
711.792847	40.513634
711.941711	40.544411
712.090637	40.595759
712.239502	40.607953
712.388367	40.647831
712.537231	40.636430
712.686096	40.644065
712.834900	40.650508
712.983765	40.661350
713.132568	40.677207
713.281372	40.678681
713.430176	40.688165
713.578979	40.732911
713.727722	40.760267
713.876526	40.729399
714.025269	40.770682
714.174072	40.773135
714.322815	40.724593
714.471558	40.749275
714.620239	40.791140
714.768982	40.827949
714.917664	40.859070
715.066406	40.791336
715.215088	40.761303
715.363770	40.774355
715.512451	40.746420
715.661072	40.686934
715.809753	40.701303
715.958374	40.686351
716.107056	40.711207
716.255676	40.714824
716.404297	40.726331
716.552917	40.738725
716.701477	40.721113
716.850098	40.732382
716.998657	40.710407
717.147217	40.697067
717.295776	40.757140
717.444336	40.763735
717.592896	40.757864
717.741455	40.787791
717.889954	40.781690
718.038513	40.767519
718.187012	40.783164
718.335510	40.733134
718.484009	40.767039
718.632446	40.798271
718.780945	40.785991
718.929382	40.812620
719.077881	40.795829
719.226318	40.840419
719.374756	40.864741
719.523132	40.831666
719.671570	40.845955
719.820007	40.891297
719.968384	40.906908
720.116760	40.944275
720.265137	40.929214
720.413513	40.883652
720.561890	40.853731
720.710205	40.825587
720.858582	40.788039
721.006897	40.828228
721.155212	40.857855
721.303528	40.888759
721.451843	40.926847
721.600159	40.926534
721.748413	40.952109
721.896729	40.891871
722.044983	40.908536
722.193237	40.878935
722.341492	40.861383
722.489746	40.905056
722.637939	40.860986
722.786194	40.813293
722.934387	40.774487
723.082581	40.757233
723.230774	40.756899
723.378967	40.812227
723.527161	40.850974
723.675354	40.895998
723.823486	40.921973
723.971619	40.910679
724.119751	40.886851
724.267883	40.901914
724.416016	40.853229
724.564148	40.889410
724.712219	40.852753
724.860352	40.919823
725.008423	40.947710
725.156494	40.978233
725.304565	40.990517
725.452637	40.941485
725.600647	40.978924
725.748718	41.010366
725.896729	41.039460
726.044739	41.045657
726.192749	41.122331
726.340759	41.065402
726.488770	41.068904
726.636719	41.061033
726.784729	41.074435
726.932678	41.080895
727.080627	41.121650
727.228577	41.156599
727.376526	41.191084
727.524414	41.209634
727.672363	41.173360
727.820251	41.205165
727.968140	41.180927
728.116028	41.148936
728.263916	41.137462
728.411804	41.166837
728.559631	41.162520
728.707520	41.169102
728.855347	41.162583
729.003174	41.140021
729.151001	41.043834
729.298828	41.121183
729.446594	41.116447
729.594421	41.101938
729.742188	41.050721
729.890015	41.077583
730.037781	41.058681
730.185486	41.024873
730.333252	41.028885
730.481018	40.997171
730.628723	41.025258
730.776428	41.003200
730.924194	41.012589
731.071899	41.023828
731.219543	41.005855
731.367249	41.027527
731.514954	41.033607
731.662598	41.040946
731.810242	41.075225
731.957886	41.113367
732.105530	41.150121
732.253174	41.138732
732.400818	41.154619
732.548401	41.175954
732.695984	41.195181
732.843567	41.196068
732.991150	41.217693
733.138733	41.231699
733.286316	41.226741
733.433838	41.227170
733.581421	41.236490
733.728943	41.209628
733.876465	41.235853
734.023987	41.233426
734.171509	41.270554
734.318970	41.226086
734.466492	41.262615
734.613953	41.242847
734.761414	41.251662
734.908875	41.288640
735.056335	41.299618
735.203796	41.297980
735.351196	41.292444
735.498657	41.279724
735.646057	41.315306
735.793457	41.298460
735.940857	41.300499
736.088257	41.309399
736.235657	41.321050
736.382996	41.331048
736.530334	41.362412
736.677734	41.402953
736.825073	41.398189
736.972351	41.439786
737.119690	41.428405
737.267029	41.429292
737.414307	41.415847
737.561584	41.464564
737.708862	41.452357
737.856140	41.392561
738.003418	41.399805
738.150696	41.379548
738.297913	41.372841
738.445190	41.371610
738.592407	41.358969
738.739624	41.351247
738.886841	41.331741
739.033997	41.344357
739.181213	41.350010
739.328369	41.360859
739.475586	41.355094
739.622742	41.355439
739.769897	41.340202
739.916992	41.291325
740.064148	41.290229
740.211304	41.291860
740.358398	41.309951
740.505493	41.279112
740.652588	41.281709
740.799683	41.324502
740.946777	41.311178
741.093811	41.368029
741.240906	41.386342
741.387939	41.405023
741.534973	41.455858
741.682007	41.471956
741.829041	41.472674
741.976013	41.442497
742.123047	41.432076
742.270020	41.420962
742.416992	41.469246
742.563965	41.495674
742.710938	41.505783
742.857910	41.523384
743.004883	41.542337
743.151794	41.562608
743.298706	41.585008
743.445618	41.577856
743.592529	41.566991
743.739441	41.567259
743.886353	41.595064
744.033203	41.563922
744.180115	41.578779
744.326965	41.579770
744.473816	41.582420
744.620667	41.562230
744.767456	41.596853
744.914307	41.605014
745.061096	41.595482
745.207947	41.629996
745.354736	41.577084
745.501526	41.559406
745.648254	41.602550
745.795044	41.619701
745.941833	41.619022
746.088562	41.604627
746.235291	41.594062
746.382019	41.598006
746.528748	41.596473
746.675476	41.591377
746.822144	41.598061
746.968872	41.592475
747.115540	41.572414
747.262207	41.596196
747.408875	41.547143
747.555542	41.582729
747.702148	41.536444
747.848816	41.543554
747.995422	41.588033
748.142029	41.533634
748.288635	41.544039
748.435242	41.555824
748.581848	41.507266
748.728394	41.482397
748.875000	41.492392
749.021545	41.516038
749.168091	41.523802
749.314636	41.515683
749.461182	41.545395
749.607666	41.568391
749.754211	41.549775
749.900696	41.585883
750.047180	41.589179
750.193665	41.571969
750.340149	41.597147
750.486633	41.611514
750.633057	41.641764
750.779541	41.634487
750.925964	41.620458
751.072388	41.643856
751.218811	41.641095
751.365234	41.657910
751.511597	41.684463
751.658020	41.738362
751.804382	41.748207
751.950745	41.754971
752.097107	41.766774
752.243469	41.788037
752.389832	41.798425
752.536133	41.791945
752.682495	41.844923
752.828796	41.818782
752.975098	41.818073
753.121399	41.827691
753.267639	41.817843
753.413940	41.821836
753.560181	41.831650
753.706482	41.845831
753.852722	41.862296
753.998962	41.863479
754.145203	41.898015
754.291382	41.829436
754.437622	41.850951
754.583801	41.829752
754.729980	41.811479
754.876160	41.840395
755.022339	41.819321
755.168518	41.840310
755.314697	41.806584
755.460815	41.788852
755.606934	41.787818
755.753052	41.859404
755.899170	41.895653
756.045288	41.892556
756.191406	41.919713
756.337463	41.886220
756.483521	41.886072
756.629639	41.909829
756.775696	41.920201
756.921692	41.968751
757.067749	41.953036
757.213806	42.015182
757.359802	41.995969
757.505798	41.987723
757.651794	42.003896
757.797791	42.019760
757.943787	42.035345
758.089783	42.042799
758.235718	42.071879
758.381653	42.128104
758.527588	42.105976
758.673523	42.071090
758.819458	42.031962
758.965393	42.050313
759.111267	42.066790
759.257202	42.104481
759.403076	42.096902
759.548950	42.098130
759.694824	42.045547
759.840698	42.032117
759.986511	42.032288
760.132385	42.001420
760.278198	41.990227
760.424011	42.009879
760.569824	42.007640
760.715637	41.974793
760.861389	41.964346
761.007202	41.961812
761.152954	41.962844
761.298706	41.934482
761.444458	41.959482
761.590210	41.948213
761.735962	41.976702
761.881653	41.962881
762.027405	41.941311
762.173096	41.939505
762.318787	41.942444
762.464478	41.932172
762.610168	41.976395
762.755798	41.972866
762.901489	42.010178
763.047119	42.050806
763.192749	42.077749
763.338379	42.081872
763.484009	42.114501
763.629639	42.132339
763.775208	42.100400
763.920837	42.096486
764.066406	42.113322
764.211975	42.112276
764.357544	42.102374
764.503052	42.090815
764.648621	42.116181
764.794128	42.131321
764.939697	42.120352
765.085205	42.136242
765.230713	42.147925
765.376221	42.139849
765.521667	42.135266
765.667175	42.123803
765.812622	42.105385
765.958069	42.078624
766.103516	42.095543
766.248962	42.091629
766.394409	42.079153
766.539795	42.049432
766.685181	42.107928
766.830627	42.118570
766.976013	42.108229
767.121399	42.105202
767.266724	42.106143
767.412109	42.122554
767.557434	42.101441
767.702820	42.096612
767.848145	42.148753
767.993469	42.141624
768.138733	42.136829
768.284058	42.161844
768.429382	42.168407
768.574646	42.203823
768.719910	42.195227
768.865173	42.192889
769.010437	42.189778
769.155701	42.176595
769.300903	42.202475
769.446167	42.209423
769.591370	42.202430
769.736572	42.172103
769.881775	42.172485
770.026978	42.173738
770.172119	42.194803
770.317322	42.208357
770.462463	42.209270
770.607605	42.228437
770.752747	42.209149
770.897888	42.220809
771.042969	42.236296
771.188110	42.236928
771.333191	42.257870
771.478271	42.235393
771.623352	42.236642
771.768433	42.236724
771.913513	42.197260
772.058533	42.202619
772.203613	42.198775
772.348633	42.242662
772.493652	42.224400
772.638672	42.274194
772.783691	42.285828
772.928650	42.267848
773.073669	42.225760
773.218628	42.222606
773.363586	42.227716
773.508545	42.248091
773.653503	42.251784
773.798462	42.239319
773.943359	42.218898
774.088257	42.200758
774.233215	42.162560
774.378113	42.183777
774.522949	42.197951
774.667847	42.185876
774.812744	42.202046
774.957581	42.250427
775.102417	42.232114
775.247253	42.179328
775.392090	42.198968
775.536926	42.172753
775.681763	42.170305
775.826538	42.216616
775.971313	42.219227
776.116089	42.208438
776.260864	42.201623
776.405640	42.178512
776.550415	42.199641
776.695129	42.200955
776.839905	42.210703
776.984619	42.237605
777.129333	42.285247
777.274048	42.323691
777.418701	42.306866
777.563416	42.332550
777.708069	42.370643
777.852722	42.356778
777.997375	42.378920
778.142029	42.408562
778.286682	42.408434
778.431335	42.399661
778.575928	42.405645
778.720520	42.418022
778.865112	42.469642
779.009705	42.489700
779.154297	42.475187
779.298889	42.475367
779.443420	42.491833
779.588013	42.533486
779.732544	42.570300
779.877075	42.582653
780.021606	42.554047
780.166077	42.555995
780.310608	42.614180
780.455078	42.637449
780.599548	42.627616
780.744019	42.633183
780.888489	42.631811
781.032959	42.646347
781.177429	42.643066
781.321838	42.682648
781.466248	42.690303
781.610657	42.705418
781.755066	42.657958
781.899475	42.652787
782.043884	42.696097
782.188232	42.687880
782.332581	42.624719
782.476929	42.557523
782.621277	42.533774
782.765625	42.532064
782.909973	42.574338
783.054260	42.571955
783.198608	42.547749
783.342896	42.551452
783.487183	42.568190
783.631470	42.567323
783.775696	42.536213
783.919983	42.531616
784.064209	42.539519
784.208435	42.503093
784.352722	42.502319
784.496887	42.456124
784.641113	42.473305
784.785339	42.517792
784.929504	42.480749
785.073669	42.463416
785.217896	42.478986
785.362000	42.504915
785.506165	42.513241
785.650330	42.517186
785.794434	42.492683
785.938599	42.480294
786.082703	42.470616
786.226807	42.457180
786.370911	42.434929
786.514954	42.416063
786.659058	42.453114
786.803101	42.454187
786.947144	42.460186
787.091187	42.477981
787.235229	42.471033
787.379272	42.465337
787.523254	42.478702
787.667297	42.428925
787.811279	42.456996
787.955261	42.515360
788.099243	42.524089
788.243225	42.528307
788.387146	42.509592
788.531128	42.523854
788.675049	42.531385
788.818970	42.518037
788.962891	42.567464
789.106812	42.625551
789.250671	42.645008
789.394592	42.628702
789.538452	42.611205
789.682312	42.601771
789.826172	42.642774
789.970032	42.649116
790.113892	42.631344
790.257690	42.678712
790.401550	42.680296
790.545349	42.712788
790.689148	42.734443
790.832947	42.712359
790.976685	42.717796
791.120483	42.723015
791.264221	42.741215
791.408020	42.716945
791.551758	42.689256
791.695435	42.694229
791.839172	42.674279
791.982910	42.629897
792.126587	42.654624
792.270264	42.702605
792.414001	42.701157
792.557617	42.733722
792.701294	42.709028
792.844971	42.726195
792.988586	42.746650
793.132263	42.711907
793.275879	42.754998
793.419495	42.755126
793.563110	42.754616
793.706665	42.746862
793.850281	42.734785
793.993835	42.750762
794.137390	42.740482
794.280945	42.748691
794.424500	42.776468
794.568054	42.814429
794.711548	42.813963
794.855103	42.823082
794.998596	42.810598
795.142090	42.788933
795.285583	42.813620
795.429016	42.789805
795.572510	42.763267
795.715942	42.796070
795.859436	42.815137
796.002869	42.850551
796.146301	42.808238
796.289673	42.796574
796.433105	42.807803
796.576477	42.852486
796.719910	42.897100
796.863281	42.888933
797.006653	42.913152
797.149963	42.909932
797.293335	42.874683
797.436707	42.835003
797.580017	42.825763
797.723328	42.821420
797.866638	42.799982
798.009949	42.854747
798.153198	42.813746
798.296509	42.812924
798.439758	42.860004
798.583008	42.816976
798.726257	42.833992
798.869507	42.773933
799.012756	42.804782
799.156006	42.803077
799.299194	42.782333
799.442383	42.775582
799.585571	42.771247
799.728760	42.778232
799.871948	42.785654
800.015076	42.824844
800.158264	42.884710
800.301392	42.911985
800.444519	42.940417
800.587646	42.968638
800.730774	42.968064
800.873840	42.933534
801.016968	42.986516
801.160034	42.989236
801.303101	42.919165
801.446167	42.916700
801.589233	42.915157
801.732239	42.994642
801.875305	42.994327
802.018311	42.998432
802.161316	43.006589
802.304321	42.988931
802.447327	42.970467
802.590332	42.956159
802.733276	42.963864
802.876282	42.937678
803.019226	42.931615
803.162170	42.902713
803.305115	42.855343
803.447998	42.865323
803.590942	42.845848
803.733826	42.825731
803.876709	42.778627
804.019592	42.820163
804.162476	42.854486
804.305359	42.858647
804.448181	42.818186
804.591064	42.756838
804.733887	42.751415
804.876709	42.794811
805.019531	42.816744
805.162354	42.796089
805.305115	42.794013
805.447937	42.850365
805.590698	42.823471
805.733459	42.850419
805.876221	42.848553
806.018982	42.848860
806.161682	42.846653
806.304443	42.794942
806.447144	42.878853
806.589844	42.928736
806.732544	42.974970
806.875244	42.967991
807.017883	42.965569
807.160583	42.979681
807.303223	43.002894
807.445862	42.998871
807.588501	43.024288
807.731140	42.969826
807.873779	42.976685
808.016357	42.987826
808.158936	43.025258
808.301575	42.996322
808.444153	43.046980
808.586670	42.988905
808.729248	42.936386
808.871826	42.983068
809.014343	43.014255
809.156860	43.054850
809.299377	43.022656
809.441895	42.988988
809.584412	42.973769
809.726868	42.936478
809.869385	42.966344
810.011841	42.969752
810.154297	42.986378
810.296753	43.023518
810.439148	43.024271
810.581604	43.091002
810.723999	43.080695
810.866455	43.110533
811.008850	43.101882
811.151184	43.094027
811.293579	43.066223
811.435974	43.139340
811.578308	43.227273
811.720642	43.198552
811.863037	43.180567
812.005310	43.187999
812.147644	43.161981
812.289978	43.163142
812.432251	43.225126
812.574524	43.272764
812.716858	43.291906
812.859070	43.321104
813.001343	43.342794
813.143616	43.343401
813.285828	43.354411
813.428101	43.286039
813.570312	43.269283
813.712524	43.238036
813.854675	43.243055
813.996887	43.280940
814.139099	43.295221
814.281250	43.290192
814.423401	43.215114
814.565552	43.244971
814.707703	43.305889
814.849792	43.260742
814.991943	43.280741
815.134033	43.270627
815.276123	43.196613
815.418213	43.182282
815.560303	43.163498
815.702393	43.117558
815.844421	43.084390
815.986511	43.074320
816.128540	43.031648
816.270569	43.100740
816.412598	43.120348
816.554565	43.164912
816.696594	43.187884
816.838562	43.133974
816.980591	43.138495
817.122559	43.114004
817.264465	43.157985
817.406433	43.156163
817.548401	43.074780
817.690308	43.106550
817.832214	43.107028
817.974121	43.140552
818.116028	43.170912
818.257935	43.181151
818.399780	43.212441
818.541687	43.259962
818.683533	43.275375
818.825378	43.260317
818.967224	43.276474
819.109070	43.221212
819.250854	43.212151
819.392700	43.243813
819.534485	43.221383
819.676270	43.241160
819.818054	43.239290
819.959839	43.252093
820.101562	43.256437
820.243347	43.277655
820.385071	43.342107
820.526794	43.338402
820.668518	43.370244
820.810242	43.374057
820.951904	43.361212
821.093628	43.340830
821.235291	43.306812
821.376953	43.264011
821.518616	43.242151
821.660278	43.264786
821.801880	43.261944
821.943542	43.290953
822.085144	43.317888
822.226746	43.255784
822.368347	43.247487
822.509949	43.302507
822.651550	43.289580
822.793091	43.302863
822.934631	43.337706
823.076233	43.281381
823.217773	43.311521
823.359253	43.326745
823.500793	43.302120
823.642273	43.340106
823.783813	43.349256
823.925293	43.330906
824.066772	43.341000
824.208252	43.395860
824.349670	43.447252
824.491150	43.523444
824.632568	43.508876
824.773987	43.473539
824.915405	43.455403
825.056824	43.510673
825.198242	43.524475
825.339600	43.486681
825.481018	43.529825
825.622375	43.546576
825.763733	43.494162
825.905029	43.533917
826.046387	43.485917
826.187744	43.505301
826.329041	43.493688
826.470337	43.443095
826.611633	43.512793
826.752930	43.536994
826.894226	43.550942
827.035461	43.545903
827.176758	43.545487
827.317993	43.497650
827.459229	43.524624
827.600464	43.567659
827.741638	43.549841
827.882874	43.511640
828.024048	43.526412
828.165222	43.559704
828.306396	43.536476
828.447571	43.488561
828.588745	43.525789
828.729858	43.501495
828.871033	43.505212
829.012146	43.484968
829.153259	43.500541
829.294373	43.492741
829.435486	43.427177
829.576538	43.449239
829.717590	43.423836
829.858704	43.401109
829.999756	43.430708
830.140808	43.428291
830.281799	43.411138
830.422852	43.443428
830.563843	43.422563
830.704834	43.413207
830.845825	43.354797
830.986816	43.308159
831.127808	43.303412
831.268799	43.346279
831.409729	43.348680
831.550659	43.356024
831.691589	43.352141
831.832520	43.363348
831.973450	43.397406
832.114319	43.466160
832.255249	43.501359
832.396118	43.512410
832.536987	43.555298
832.677856	43.532661
832.818726	43.521989
832.959534	43.495401
833.100342	43.490904
833.241211	43.493861
833.382019	43.580435
833.522827	43.649933
833.663574	43.716981
833.804382	43.777135
833.945129	43.792980
834.085876	43.744783
834.226685	43.706645
834.367371	43.713976
834.508118	43.748324
834.648865	43.744370
834.789551	43.689577
834.930237	43.645919
835.070923	43.633423
835.211609	43.601361
835.352295	43.594880
835.492981	43.577414
835.633606	43.590930
835.774231	43.638537
835.914856	43.605466
836.055481	43.572208
836.196106	43.526880
836.336670	43.493998
836.477295	43.511594
836.617859	43.472184
836.758423	43.457851
836.898987	43.478441
837.039551	43.531331
837.180054	43.549244
837.320618	43.585309
837.461121	43.613802
837.601624	43.660441
837.742126	43.701367
837.882629	43.706593
838.023071	43.713539
838.163574	43.737666
838.304016	43.816974
838.444458	43.796107
838.584900	43.804144
838.725281	43.917849
838.865723	43.938122
839.006104	43.966160
839.146545	43.915020
839.286926	43.864138
839.427307	43.875317
839.567627	43.852841
839.708008	43.885608
839.848328	43.879304
839.988647	43.906895
840.128967	43.866784
840.269287	43.851200
840.409607	43.873448
840.549927	43.862110
840.690186	43.858898
840.830444	43.864700
840.970703	43.855189
841.110962	43.845949
841.251221	43.865543
841.391418	43.853868
841.531677	43.812640
841.671875	43.820837
841.812073	43.817260
841.952271	43.878048
842.092468	43.882156
842.232605	43.895608
842.372803	43.950342
842.512939	43.907397
842.653076	43.927366
842.793213	43.924918
842.933289	43.914023
843.073425	43.971109
843.213501	43.959597
843.353638	43.907259
843.493713	43.952397
843.633789	43.979361
843.773804	43.967799
843.913879	43.935372
844.053894	43.950192
844.193909	43.950564
844.333923	43.922972
844.473938	43.894454
844.613953	43.855813
844.753906	43.875612
844.893921	43.891386
845.033875	43.879661
845.173828	43.868036
845.313782	43.949420
845.453735	43.969135
845.593628	43.990859
845.733582	44.010624
845.873474	43.969914
846.013367	43.976898
846.153259	44.022494
846.293091	44.016189
846.432983	43.971595
846.572815	43.981966
846.712646	44.054389
846.852478	44.007376
846.992310	44.001365
847.132141	44.026477
847.271912	44.022343
847.411743	44.049083
847.551514	43.992565
847.691284	44.001443
847.831055	43.967113
847.970764	43.951006
848.110535	43.921468
848.250244	43.915451
848.389954	43.893794
848.529663	43.859162
848.669373	43.828272
848.809082	43.820289
848.948730	43.819799
849.088440	43.744171
849.228088	43.797825
849.367737	43.800550
849.507385	43.789022
849.646973	43.799308
849.786621	43.793765
849.926208	43.815495
850.065796	43.774475
850.205383	43.776802
850.344971	43.789830
850.484558	43.839246
850.624084	43.881080
850.763611	43.923051
850.903198	43.946616
851.042725	43.868749
851.182190	43.882193
851.321716	43.895747
851.461182	43.888838
851.600708	43.852021
851.740173	43.876192
851.879639	43.935330
852.019104	43.890739
852.158508	43.877088
852.297974	43.854449
852.437378	43.837613
852.576782	43.842312
852.716187	43.861571
852.855591	43.957634
852.994934	43.969132
853.134338	44.015757
853.273682	43.969362
853.413025	43.967126
853.552368	43.930190
853.691711	43.881033
853.830994	43.968388
853.970337	43.967988
854.109619	43.974566
854.248901	44.029410
854.388184	44.049320
854.527466	43.984037
854.666687	43.966572
854.805969	44.023457
854.945190	43.963518
855.084412	43.995080
855.223633	44.042799
855.362854	44.064541
855.502014	44.065972
855.641235	44.041750
855.780396	44.050716
855.919556	44.048084
856.058716	44.062830
856.197876	44.057940
856.336975	44.059590
856.476135	44.095697
856.615234	44.070866
856.754333	44.041865
856.893433	44.075290
857.032471	44.064577
857.171570	44.066515
857.310608	44.104042
857.449646	44.133411
857.588745	44.113316
857.727722	44.222203
857.866760	44.202226
858.005798	44.180824
858.144775	44.167693
858.283752	44.176956
858.422729	44.188832
858.561707	44.200573
858.700684	44.178536
858.839600	44.134555
858.978516	44.146593
859.117493	44.168038
859.256409	44.179733
859.395264	44.172306
859.534180	44.171846
859.673096	44.113907
859.811951	44.128908
859.950806	44.130344
860.089661	44.149512
860.228516	44.159327
860.367310	44.173434
860.506165	44.135820
860.644958	44.107528
860.783752	44.128229
860.922546	44.161901
861.061340	44.107505
861.200134	44.066942
861.338867	44.052104
861.477600	44.015480
861.616333	44.047013
