# Wavelength (nm)	Smoothed Intensity
299.383362	5.307077
299.552002	5.414877
299.720612	5.524214
299.889191	5.635047
300.057800	5.747335
300.226379	5.861037
300.394958	5.976113
300.563538	6.092523
300.732117	6.210225
300.900696	6.329178
301.069244	6.449343
301.237793	6.570677
301.406342	6.693142
301.574890	6.816695
301.743408	6.941296
301.911957	7.066905
302.080475	7.193480
302.248993	7.320981
302.417480	7.449368
302.585999	7.578599
302.754486	7.773404
302.922974	7.904846
303.091461	8.037180
303.259949	8.169110
303.428436	8.301540
303.596893	8.434574
303.765350	8.568011
303.933807	8.702809
304.102264	8.837804
304.270691	8.973914
304.439117	9.109778
304.607574	9.246115
304.776001	9.382387
304.944397	9.519316
305.112823	9.656753
305.281219	9.793734
305.449615	9.931862
305.618011	10.070207
305.786407	10.209916
305.954773	10.350254
306.123169	10.491264
306.291534	10.632451
306.459900	10.773774
306.628235	10.915654
306.796600	11.057646
306.964935	11.199137
307.133270	11.340332
307.301605	11.481696
307.469940	11.623542
307.638245	11.765892
307.806580	11.908757
307.974884	12.051032
308.143188	12.192621
308.311462	12.334617
308.479767	12.475749
308.648041	12.616725
308.816315	12.757150
308.984589	12.897458
309.152863	13.037660
309.321106	13.177043
309.489380	13.316040
309.657623	13.453932
309.825867	13.591275
309.994080	13.728491
310.162323	13.865671
310.330536	14.002415
310.498749	14.139890
310.666962	14.277093
310.835175	14.414160
311.003357	14.550123
311.171539	14.686075
311.339752	14.822299
311.507904	14.957610
311.676086	15.093002
311.844238	15.228243
312.012421	15.363544
312.180573	15.497868
312.348724	15.631362
312.516846	15.763195
312.684998	15.894397
312.853119	16.024813
313.021240	16.154271
313.189362	16.283235
313.357452	16.410850
313.525574	16.538205
313.693665	16.665242
313.861755	16.791323
314.029846	16.915711
314.197937	17.038910
314.365997	17.162668
314.534058	17.285947
314.702118	17.408403
314.870178	17.530753
315.038239	17.651047
315.206268	17.770993
315.374298	17.890234
315.542328	18.009555
315.710358	18.128881
315.878357	18.247527
316.046387	18.365977
316.214386	18.484431
316.382385	18.603314
316.550385	18.721888
316.718353	18.840527
316.886353	18.957648
317.054321	19.075039
317.222290	19.191177
317.390259	19.305461
317.558197	19.418287
317.726135	19.528560
317.894104	19.636814
318.062012	19.743159
318.229950	19.848570
318.397888	19.953163
318.565796	20.055577
318.733704	20.156766
318.901611	20.256952
319.069519	20.355176
319.237396	20.452164
319.405304	20.547913
319.573181	20.642152
319.741058	20.735190
319.908905	20.827389
320.076782	20.918932
320.244629	21.009797
320.412476	21.099086
320.580322	21.187373
320.748169	21.277376
320.915985	21.367666
321.083801	21.457259
321.251617	21.546890
321.419434	21.637252
321.587250	21.727565
321.755035	21.818597
321.922821	21.910014
322.090607	22.001007
322.258392	22.092047
322.426178	22.183220
322.593933	22.274693
322.761719	22.366177
322.929474	22.456990
323.097198	22.547375
323.264954	22.637346
323.432678	22.725574
323.600403	22.814198
323.768127	22.900700
323.935852	22.985865
324.103577	23.069186
324.271271	23.151931
324.438965	23.234368
324.606659	23.316229
324.774353	23.397112
324.942047	23.477286
325.109711	23.555332
325.277374	23.633225
325.445038	23.710432
325.612701	23.786075
325.780334	23.860894
325.947968	23.935018
326.115631	24.007721
326.283234	24.080268
326.450867	24.151868
326.618500	24.222815
326.786102	24.294056
326.953705	24.364084
327.121307	24.434727
327.288879	24.506492
327.456482	24.578257
327.624054	24.650053
327.791626	24.721858
327.959198	24.792964
328.126770	24.863311
328.294312	24.932839
328.461853	25.003308
328.629395	25.072911
328.796936	25.142792
328.964478	25.212406
329.131989	25.281593
329.299500	25.350074
329.467010	25.419176
329.634521	25.487917
329.802002	25.556335
329.969513	25.623770
330.136993	25.689835
330.304474	25.755191
330.471954	25.820395
330.639404	25.884495
330.806854	25.948317
330.974335	26.010585
331.141754	26.072697
331.309204	26.134027
331.476654	26.195031
331.644073	26.255612
331.811493	26.315712
331.978912	26.375226
332.146332	26.432077
332.313721	26.487937
332.481110	26.543067
332.648499	26.598049
332.815887	26.651974
332.983276	26.704218
333.150635	26.756512
333.317993	26.808831
333.485352	26.860692
333.652710	26.912176
333.820068	26.962083
333.987396	27.011439
334.154724	27.058542
334.322052	27.104702
334.489380	27.149334
334.656708	27.193996
334.824005	27.238085
334.991302	27.280648
335.158600	27.321802
335.325897	27.362338
335.493164	27.403249
335.660431	27.444128
335.827728	27.484644
335.994965	27.524457
336.162231	27.562855
336.329498	27.602176
336.496735	27.640563
336.663971	27.678939
336.831207	27.718199
336.998413	27.757596
337.165649	27.797200
337.332855	27.837611
337.500061	27.879686
337.667267	27.922884
337.834442	27.965804
338.001648	28.009066
338.168823	28.052485
338.335999	28.096357
338.503174	28.140252
338.670319	28.184172
338.837494	28.229254
339.004639	28.275108
339.171783	28.321301
339.338898	28.367570
339.506042	28.413584
339.673157	28.459796
339.840271	28.505759
340.007385	28.550618
340.174500	28.593846
340.341583	28.636266
340.508667	28.679084
340.675751	28.719629
340.842834	28.759657
341.009918	28.798594
341.176971	28.837596
341.344055	28.874639
341.511108	28.910528
341.678131	28.946712
341.845184	28.982344
342.012207	29.017368
342.179230	29.051035
342.346252	29.083360
342.513275	29.115304
342.680298	29.146732
342.847290	29.179601
343.014282	29.210889
343.181274	29.241791
343.348267	29.272449
343.515228	29.303668
343.682190	29.334927
343.849152	29.365756
344.016113	29.397139
344.183075	29.426521
344.350006	29.455418
344.516968	29.484366
344.683899	29.513834
344.850800	29.543061
345.017731	29.572167
345.184631	29.601007
345.351532	29.629362
345.518433	29.656723
345.685333	29.684096
345.852234	29.710672
346.019104	29.736881
346.185974	29.762368
346.352844	29.787750
346.519714	29.813200
346.686554	29.837832
346.853424	29.862461
347.020264	29.887568
347.187073	29.911955
347.353912	29.936931
347.520721	29.962762
347.687561	29.988467
347.854370	30.013762
348.021179	30.039480
348.187958	30.065800
348.354736	30.091745
348.521545	30.117752
348.688324	30.143718
348.855072	30.170926
349.021851	30.198090
349.188599	30.225118
349.355347	30.252709
349.522095	30.279777
349.688843	30.307153
349.855560	30.334583
350.022308	30.362929
350.189026	30.390936
350.355743	30.417630
350.522430	30.444212
350.689148	30.469066
350.855835	30.494493
351.022522	30.519527
351.189209	30.544221
351.355865	30.568532
351.522522	30.592884
351.689209	30.616804
351.855865	30.640075
352.022491	30.663449
352.189148	30.687240
352.355774	30.710102
352.522400	30.733225
352.689026	30.755720
352.855652	30.778512
353.022247	30.801407
353.188843	30.824517
353.355438	30.847918
353.522034	30.871728
353.688629	30.895304
353.855194	30.919548
354.021759	30.944777
354.188324	30.969506
354.354889	30.994046
354.521454	31.018042
354.687988	31.041067
354.854523	31.063336
355.021057	31.085257
355.187592	31.107040
355.354095	31.129201
355.520599	31.149780
355.687134	31.170432
355.853607	31.190564
356.020111	31.210231
356.186584	31.228922
356.353088	31.247151
356.519562	31.264679
356.686005	31.280927
356.852478	31.296572
357.018921	31.312027
357.185364	31.326907
357.351807	31.341334
357.518250	31.355214
357.684692	31.370052
357.851105	31.385310
358.017517	31.400427
358.183929	31.414919
358.350311	31.429240
358.516724	31.444611
358.683105	31.459344
358.849487	31.474671
359.015869	31.490725
359.182220	31.507167
359.348602	31.524257
359.514954	31.542325
359.681305	31.561064
359.847656	31.579857
360.013977	31.600199
360.180298	31.619691
360.346649	31.640496
360.512939	31.660652
360.679260	31.680461
360.845581	31.699456
361.011871	31.717794
361.178162	31.736232
361.344452	31.755462
361.510712	31.775692
361.677002	31.795923
361.843262	31.815636
362.009521	31.835308
362.175751	31.855014
362.342010	31.875740
362.508240	31.896692
362.674469	31.917380
362.840698	31.937549
363.006927	31.957426
363.173126	31.977391
363.339325	31.996006
363.505524	32.015007
363.671722	32.033129
363.837921	32.050935
364.004089	32.068818
364.170258	32.087651
364.336426	32.105958
364.502594	32.124050
364.668762	32.141566
364.834900	32.159469
365.001038	32.177381
365.167175	32.195190
365.333282	32.213304
365.499420	32.231141
365.665527	32.247243
365.831635	32.262168
365.997742	32.276781
366.163818	32.291181
366.329926	32.304530
366.496002	32.317586
366.662079	32.329616
366.828156	32.342306
366.994202	32.354074
367.160248	32.365979
367.326294	32.377795
367.492340	32.389963
367.658386	32.402918
367.824402	32.415975
367.990448	32.429485
368.156464	32.442192
368.322449	32.455376
368.488464	32.469057
368.654449	32.482887
368.820435	32.497194
368.986420	32.511337
369.152405	32.525942
369.318390	32.541337
369.484344	32.557361
369.650299	32.573476
369.816254	32.589201
369.982178	32.606077
370.148132	32.621873
370.314056	32.638326
370.479980	32.655251
370.645905	32.672780
370.811798	32.689970
370.977692	32.707002
371.143616	32.724171
371.309479	32.741384
371.475372	32.758625
371.641266	32.775644
371.807129	32.791591
371.972992	32.806840
372.138855	32.820764
372.304688	32.834781
372.470551	32.848169
372.636383	32.860668
372.802216	32.872120
372.968018	32.883594
373.133850	32.894487
373.299652	32.905615
373.465454	32.916723
373.631256	32.927640
373.797058	32.938747
373.962830	32.949246
374.128601	32.958788
374.294373	32.967750
374.460144	32.976738
374.625916	32.985952
374.791656	32.995158
374.957397	33.003937
375.123138	33.012620
375.288879	33.022165
375.454590	33.032664
375.620331	33.043219
375.786041	33.053894
375.951721	33.064266
376.117432	33.074550
376.283112	33.085096
376.448822	33.096232
376.614471	33.107086
376.780151	33.118155
376.945831	33.129346
377.111481	33.140096
377.277130	33.150561
377.442780	33.161511
377.608429	33.172267
377.774048	33.182177
377.939667	33.191100
378.105286	33.198961
378.270905	33.206387
378.436523	33.213221
378.602112	33.219097
378.767700	33.223901
378.933289	33.227858
379.098877	33.232960
379.264435	33.237849
379.429993	33.242955
379.595551	33.248599
379.761108	33.254498
379.926666	33.260344
380.092194	33.266398
380.257721	33.272562
380.423248	33.279074
380.588776	33.286250
380.754272	33.294804
380.919800	33.304714
381.085297	33.315679
381.250793	33.327230
381.416260	33.340244
381.581757	33.354944
381.747223	33.371502
381.912689	33.388146
382.078125	33.405753
382.243591	33.425201
382.409027	33.444175
382.574463	33.463625
382.739899	33.483739
382.905334	33.502545
383.070740	33.521280
383.236176	33.539807
383.401581	33.558635
383.566956	33.576593
383.732361	33.593682
383.897736	33.611196
384.063110	33.627172
384.228485	33.642052
384.393860	33.656076
384.559204	33.670029
384.724579	33.683437
384.889923	33.695651
385.055237	33.707010
385.220581	33.718839
385.385895	33.730165
385.551239	33.740806
385.716522	33.750948
385.881836	33.761356
386.047150	33.771918
386.212433	33.782657
386.377716	33.793278
386.542999	33.803990
386.708252	33.814502
386.873535	33.825833
387.038788	33.837320
387.204041	33.849067
387.369293	33.862118
387.534515	33.875932
387.699738	33.889531
387.864960	33.902998
388.030182	33.915692
388.195404	33.928261
388.360596	33.939965
388.525787	33.951723
388.690979	33.963250
388.856171	33.973070
389.021362	33.983287
389.186523	33.993819
389.351685	34.003690
389.516846	34.014253
389.682007	34.025448
389.847137	34.036384
390.012268	34.047420
390.177399	34.058605
390.342529	34.070482
390.507629	34.080887
390.672760	34.090959
390.837860	34.100072
391.002960	34.109847
391.168030	34.119356
391.333130	34.130176
391.498199	34.141512
391.663269	34.153861
391.828339	34.165441
391.993378	34.178190
392.158447	34.192002
392.323486	34.205230
392.488525	34.217416
392.653534	34.228815
392.818573	34.239800
392.983582	34.250526
393.148590	34.261080
393.313599	34.271385
393.478577	34.280789
393.643585	34.290636
393.808563	34.300393
393.973541	34.308308
394.138489	34.315839
394.303467	34.323327
394.468414	34.331100
394.633362	34.338137
394.798309	34.344461
394.963226	34.351415
395.128174	34.358991
395.293091	34.366197
395.458008	34.374661
395.622894	34.383273
395.787811	34.392236
395.952698	34.401400
396.117584	34.411148
396.282471	34.420800
396.447327	34.430362
396.612213	34.439262
396.777069	34.449185
396.941925	34.459277
397.106750	34.471396
397.271606	34.485074
397.436432	34.500620
397.601257	34.516378
397.766083	34.532826
397.930878	34.548816
398.095703	34.565506
398.260498	34.581339
398.425293	34.596291
398.590057	34.609902
398.754852	34.622744
398.919617	34.636157
399.084381	34.648953
399.249146	34.661902
399.413879	34.674398
399.578644	34.686244
399.743378	34.698241
399.908112	34.709793
400.072815	34.721188
400.237549	34.731586
400.402252	34.741025
400.566956	34.749571
400.731659	34.756531
400.896332	34.763594
401.061035	34.769768
401.225708	34.775991
401.390381	34.782373
401.555023	34.788672
401.719696	34.794698
401.884338	34.801301
402.048981	34.807532
402.213623	34.813887
402.378235	34.820541
402.542847	34.827162
402.707489	34.833726
402.872070	34.840657
403.036682	34.848791
403.201294	34.859145
403.365875	34.870711
403.530457	34.883323
403.695007	34.895574
403.859589	34.907739
404.024139	34.919675
404.188690	34.931395
404.353241	34.943041
404.517792	34.955420
404.682312	34.966410
404.846832	34.977901
405.011353	34.989904
405.175873	35.002760
405.340393	35.014108
405.504883	35.024720
405.669373	35.035630
405.833862	35.046580
405.998322	35.057298
406.162811	35.067494
406.327271	35.075873
406.491730	35.083475
406.656189	35.089694
406.820618	35.094159
406.985046	35.097364
407.149475	35.100960
407.313904	35.105239
407.478333	35.107566
407.642731	35.108803
407.807129	35.109770
407.971527	35.110769
408.135925	35.110464
408.300293	35.110783
408.464661	35.110199
408.629028	35.110145
408.793396	35.109158
408.957764	35.107221
409.122101	35.106170
409.286438	35.107088
409.450775	35.108650
409.615112	35.111774
409.779419	35.115446
409.943726	35.118859
410.108032	35.122168
410.272339	35.125361
410.436646	35.128739
410.600922	35.132798
410.765198	35.138822
410.929474	35.146462
411.093750	35.154424
411.257996	35.163991
411.422241	35.174411
411.586487	35.184877
411.750732	35.195693
411.914948	35.209526
412.079193	35.223460
412.243408	35.239109
412.407623	35.254907
412.571808	35.269499
412.735992	35.284401
412.900208	35.298791
413.064392	35.311986
413.228546	35.324786
413.392731	35.338460
413.556885	35.353138
413.721039	35.367048
413.885193	35.379971
414.049316	35.393159
414.213470	35.406110
414.377594	35.419810
414.541718	35.433161
414.705811	35.447785
414.869934	35.462100
415.034027	35.476989
415.198120	35.490707
415.362213	35.506592
415.526276	35.522041
415.690338	35.536717
415.854431	35.549240
416.018463	35.561247
416.182526	35.573894
416.346558	35.585001
416.510620	35.595660
416.674622	35.605948
416.838654	35.616828
417.002686	35.629082
417.166687	35.641430
417.330688	35.652668
417.494690	35.663433
417.658661	35.673111
417.822662	35.681690
417.986633	35.688722
418.150604	35.696182
418.314545	35.702874
418.478516	35.708016
418.642456	35.711663
418.806396	35.714690
418.970337	35.717544
419.134247	35.721296
419.298187	35.725566
419.462097	35.729743
419.625977	35.735686
419.789886	35.742648
419.953766	35.750740
420.117676	35.759220
420.281555	35.767868
420.445404	35.777377
420.609283	35.787751
420.773132	35.800350
420.936981	35.813535
421.100830	35.827879
421.264648	35.842683
421.428497	35.857108
421.592316	35.871511
421.756134	35.885639
421.919922	35.899737
422.083740	35.915061
422.247528	35.929834
422.411316	35.945897
422.575104	35.961236
422.738861	35.975037
422.902618	35.988931
423.066406	36.002569
423.230133	36.015563
423.393890	36.028456
423.557617	36.040060
423.721344	36.051700
423.885071	36.063471
424.048798	36.073514
424.212524	36.083218
424.376221	36.092921
424.539917	36.102232
424.703583	36.110855
424.867279	36.119604
425.030945	36.129182
425.194611	36.139528
425.358276	36.148741
425.521942	36.158739
425.685577	36.168906
425.849213	36.178992
426.012848	36.189384
426.176483	36.199785
426.340118	36.209648
426.503723	36.219639
426.667328	36.227931
426.830933	36.236934
426.994507	36.245041
427.158112	36.252864
427.321686	36.259861
427.485229	36.265613
427.648804	36.270287
427.812378	36.274664
427.975922	36.280251
428.139465	36.285422
428.302979	36.291109
428.466522	36.295351
428.630035	36.299276
428.793549	36.304092
428.957062	36.309798
429.120575	36.315890
429.284058	36.322345
429.447540	36.329291
429.611023	36.338032
429.774506	36.346463
429.937958	36.356362
430.101410	36.367551
430.264862	36.378898
430.428314	36.389890
430.591736	36.402183
430.755188	36.415532
430.918610	36.429152
431.082031	36.443618
431.245422	36.458053
431.408813	36.473317
431.572235	36.487280
431.735596	36.501711
431.898987	36.516716
432.062378	36.529645
432.225739	36.540949
432.389099	36.552291
432.552429	36.563274
432.715790	36.572526
432.879120	36.581643
433.042450	36.589490
433.205780	36.597727
433.369110	36.604286
433.532410	36.610468
433.695709	36.616821
433.859009	36.621987
434.022308	36.627623
434.185577	36.634831
434.348846	36.642518
434.512115	36.648509
434.675385	36.653972
434.838654	36.660945
435.001892	36.668592
435.165131	36.676486
435.328369	36.685810
435.491577	36.694572
435.654816	36.703401
435.818024	36.712784
435.981232	36.722601
436.144409	36.730299
436.307617	36.739515
436.470795	36.746556
436.633972	36.753328
436.797119	36.759995
436.960297	36.765908
437.123444	36.771583
437.286591	36.775611
437.449738	36.777701
437.612885	36.777882
437.776001	36.778600
437.939117	36.778395
438.102234	36.777512
438.265350	36.776546
438.428436	36.775282
438.591522	36.774792
438.754608	36.775167
438.917694	36.775157
439.080750	36.775808
439.243835	36.777884
439.406891	36.782133
439.569916	36.787239
439.732971	36.793420
439.895996	36.800606
440.059021	36.808892
440.222046	36.818977
440.385071	36.831218
440.548065	36.845859
440.711060	36.861496
440.874054	36.878484
441.037048	36.896671
441.200012	36.917279
441.363007	36.938483
441.525970	36.960986
441.688904	36.984115
441.851868	37.006302
442.014801	37.027294
442.177734	37.049211
442.340668	37.069714
442.503601	37.087746
442.666504	37.104595
442.829407	37.120481
442.992310	37.137378
443.155212	37.152709
443.318085	37.166875
443.480957	37.179223
443.643829	37.188639
443.806702	37.196080
443.969543	37.203265
444.132416	37.211028
444.295258	37.217842
444.458069	37.222885
444.620911	37.226906
444.783722	37.230155
444.946533	37.232923
445.109344	37.235462
445.272156	37.238879
445.434937	37.241079
445.597717	37.244673
445.760498	37.250203
445.923279	37.255560
446.086060	37.260104
446.248810	37.264267
446.411560	37.269726
446.574280	37.276718
446.737030	37.284189
446.899750	37.292848
447.062469	37.301353
447.225189	37.309897
447.387909	37.318431
447.550598	37.327071
447.713287	37.336243
447.875977	37.346404
448.038666	37.356424
448.201324	37.366095
448.363983	37.376279
448.526642	37.386633
448.689301	37.396768
448.851929	37.406005
449.014587	37.416320
449.177216	37.427119
449.339813	37.438512
449.502441	37.448894
449.665039	37.458412
449.827637	37.466710
449.990234	37.474893
450.152832	37.483685
450.315399	37.493037
450.477966	37.502725
450.640533	37.511969
450.803101	37.521576
450.965637	37.531277
451.128174	37.542024
451.290710	37.551763
451.453247	37.561340
451.615784	37.570198
451.778290	37.578790
451.940796	37.589087
452.103302	37.598585
452.265778	37.605961
452.428253	37.613933
452.590729	37.623011
452.753204	37.632684
452.915680	37.642351
453.078125	37.652210
453.240570	37.663301
453.403015	37.674026
453.565460	37.685502
453.727875	37.696150
453.890289	37.705544
454.052704	37.715385
454.215118	37.724379
454.377533	37.732517
454.539917	37.739946
454.702301	37.747857
454.864685	37.755837
455.027039	37.764459
455.189392	37.771827
455.351746	37.780649
455.514099	37.789628
455.676453	37.797884
455.838776	37.804470
456.001099	37.811942
456.163422	37.820555
456.325745	37.829031
456.488037	37.836636
456.650330	37.844843
456.812622	37.853875
456.974915	37.863462
457.137177	37.873519
457.299469	37.883277
457.461731	37.893610
457.623962	37.902454
457.786224	37.912847
457.948456	37.923021
458.110687	37.933623
458.272919	37.945074
458.435150	37.956238
458.597351	37.967900
458.759552	37.981640
458.921753	37.994527
459.083923	38.008791
459.246124	38.021898
459.408295	38.034859
459.570465	38.047707
459.732635	38.059357
459.894775	38.069934
460.056915	38.078488
460.219055	38.087361
460.381195	38.096380
460.543304	38.104773
460.705444	38.113753
460.867554	38.121652
461.029633	38.129517
461.191742	38.137677
461.353821	38.145373
461.515900	38.151681
461.677979	38.157832
461.840057	38.162415
462.002106	38.165243
462.164154	38.168983
462.326202	38.172996
462.488251	38.175416
462.650269	38.176784
462.812286	38.177652
462.974304	38.179323
463.136322	38.181332
463.298309	38.183591
463.460297	38.185246
463.622284	38.187637
463.784271	38.188551
463.946259	38.188234
464.108215	38.190589
464.270172	38.192868
464.432129	38.195718
464.594055	38.199275
464.755981	38.202166
464.917908	38.207046
465.079834	38.212772
465.241760	38.218270
465.403656	38.223999
465.565552	38.227892
465.727448	38.234322
465.889343	38.240861
466.051208	38.247829
466.213074	38.254959
466.374939	38.263470
466.536804	38.272629
466.698639	38.281289
466.860504	38.288571
467.022308	38.297411
467.184143	38.304724
467.345978	38.311676
467.507782	38.318241
467.669586	38.323270
467.831390	38.326562
467.993164	38.328544
468.154938	38.328984
468.316711	38.326285
468.478485	38.322901
468.640259	38.319122
468.802002	38.316580
468.963745	38.315040
469.125488	38.314521
469.287231	38.313874
469.448944	38.313094
469.610657	38.310970
469.772369	38.308828
469.934082	38.308360
470.095764	38.309236
470.257446	38.312651
470.419128	38.320519
470.580811	38.329640
470.742462	38.340167
470.904144	38.352066
471.065796	38.366069
471.227417	38.383207
471.389069	38.401765
471.550690	38.423175
471.712311	38.446001
471.873932	38.469646
472.035522	38.493006
472.197144	38.514166
472.358734	38.535357
472.520294	38.557118
472.681885	38.579042
472.843445	38.600256
473.005005	38.619746
473.166565	38.637032
473.328125	38.652330
473.489655	38.663539
473.651184	38.671270
473.812714	38.675988
473.974243	38.678458
474.135742	38.679210
474.297241	38.678074
474.458740	38.675449
474.620239	38.669623
474.781738	38.665655
474.943207	38.662617
475.104675	38.658409
475.266113	38.652762
475.427582	38.646897
475.589020	38.640423
475.750458	38.633791
475.911896	38.628958
476.073303	38.626624
476.234741	38.627008
476.396149	38.630170
476.557526	38.635895
476.718933	38.644365
476.880310	38.655600
477.041687	38.667921
477.203064	38.681814
477.364441	38.697781
477.525787	38.714467
477.687134	38.731412
477.848480	38.749941
478.009827	38.766984
478.171143	38.783068
478.332458	38.798615
478.493774	38.814834
478.655090	38.830786
478.816376	38.846615
478.977661	38.861995
479.138947	38.875489
479.300232	38.886078
479.461487	38.895985
479.622772	38.903104
479.784027	38.908859
479.945251	38.912315
480.106506	38.915157
480.267731	38.917580
480.428955	38.918767
480.590179	38.918418
480.751373	38.917396
480.912567	38.915204
481.073761	38.914371
481.234955	38.912569
481.396149	38.910665
481.557312	38.910414
481.718475	38.910850
481.879639	38.912687
482.040802	38.913521
482.201935	38.915677
482.363068	38.918127
482.524200	38.921768
482.685303	38.925660
482.846436	38.930888
483.007538	38.937723
483.168640	38.946524
483.329712	38.953753
483.490814	38.962679
483.651886	38.973482
483.812958	38.984450
483.973999	38.997406
484.135071	39.012767
484.296112	39.027034
484.457153	39.041264
484.618195	39.055556
484.779205	39.069371
484.940216	39.083047
485.101227	39.097261
485.262238	39.113679
485.423218	39.128426
485.584229	39.142388
485.745209	39.156228
485.906158	39.167517
486.067139	39.178757
486.228088	39.189257
486.389038	39.198887
486.549988	39.208014
486.710907	39.216966
486.871857	39.224661
487.032776	39.231758
487.193665	39.237773
487.354584	39.243305
487.515472	39.249239
487.676361	39.256577
487.837250	39.264172
487.998138	39.271845
488.158997	39.279435
488.319855	39.285830
488.480713	39.291781
488.641541	39.299121
488.802399	39.306718
488.963226	39.315641
489.124054	39.328006
489.284851	39.340060
489.445679	39.351682
489.606476	39.363582
489.767273	39.377196
489.928040	39.389883
490.088837	39.402539
490.249603	39.415841
490.410370	39.429343
490.571106	39.441094
490.731873	39.451695
490.892609	39.461684
491.053345	39.470674
491.214081	39.478993
491.374786	39.487618
491.535492	39.496177
491.696198	39.502026
491.856903	39.507535
492.017578	39.513098
492.178284	39.516901
492.338959	39.518126
492.499603	39.518517
492.660278	39.517114
492.820923	39.514867
492.981567	39.511985
493.142212	39.508100
493.302826	39.504321
493.463440	39.500746
493.624054	39.497509
493.784668	39.496458
493.945282	39.496722
494.105865	39.497048
494.266449	39.496647
494.427032	39.496843
494.587585	39.497382
494.748169	39.497141
494.908722	39.499229
495.069244	39.500906
495.229797	39.503238
495.390320	39.505531
495.550842	39.507469
495.711365	39.509952
495.871887	39.513929
496.032379	39.518047
496.192871	39.522221
496.353363	39.527779
496.513855	39.532103
496.674316	39.536789
496.834778	39.540624
496.995239	39.543977
497.155670	39.547993
497.316132	39.551364
497.476562	39.555900
497.636993	39.560068
497.797394	39.563707
497.957825	39.569085
498.118225	39.574635
498.278625	39.579964
498.438995	39.584706
498.599396	39.589866
498.759766	39.596748
498.920135	39.603745
499.080475	39.611965
499.240845	39.621318
499.401184	39.631424
499.561523	39.642162
499.721832	39.654083
499.882172	39.667528
500.042480	39.682649
500.202789	39.697441
500.363098	39.710779
500.523376	39.723288
500.683655	39.736513
500.843933	39.747829
501.004211	39.757679
501.164459	39.767750
501.324707	39.776143
501.484955	39.784518
501.645203	39.792266
501.805420	39.799949
501.965668	39.806256
502.125885	39.813265
502.286072	39.818058
502.446289	39.822256
502.606476	39.824692
502.766663	39.825893
502.926849	39.828003
503.087006	39.827219
503.247162	39.825551
503.407318	39.824053
503.567474	39.823070
503.727600	39.823818
503.887756	39.823756
504.047882	39.826572
504.207977	39.831123
504.368103	39.835204
504.528198	39.841652
504.688293	39.848226
504.848389	39.855545
505.008453	39.863452
505.168549	39.872340
505.328613	39.881841
505.488647	39.891976
505.648712	39.902037
505.808746	39.911997
505.968781	39.921421
506.128815	39.930897
506.288818	39.940071
506.448853	39.948063
506.608856	39.955648
506.768829	39.962527
506.928833	39.968648
507.088806	39.972791
507.248779	39.975317
507.408752	39.977815
507.568695	39.978854
507.728668	39.978956
507.888611	39.978076
508.048523	39.978035
508.208466	39.977622
508.368378	39.976983
508.528290	39.974389
508.688202	39.972241
508.848114	39.969466
509.007996	39.967213
509.167877	39.966289
509.327759	39.962723
509.487610	39.962483
509.647461	39.963301
509.807312	39.964879
509.967163	39.967392
510.127014	39.971737
510.286835	39.978480
510.446655	39.986128
510.606476	39.994461
510.766266	40.003328
510.926086	40.010456
511.085876	40.018944
511.245667	40.027217
511.405426	40.034633
511.565186	40.042115
511.724945	40.049111
511.884705	40.055770
512.044434	40.063152
512.204163	40.071194
512.363953	40.079820
512.523621	40.088771
512.683350	40.096411
512.843079	40.104003
513.002747	40.108945
513.162476	40.112831
513.322144	40.113205
513.481812	40.113213
513.641479	40.114597
513.801147	40.115914
513.960815	40.117274
514.120422	40.119602
514.280090	40.123113
514.439697	40.126580
514.599365	40.129880
514.758972	40.133818
514.918579	40.139254
515.078186	40.144139
515.237732	40.149937
515.397339	40.156945
515.556946	40.163449
515.716492	40.174177
515.876038	40.185035
516.035583	40.197031
516.195129	40.210475
516.354675	40.225624
516.514221	40.242927
516.673767	40.261039
516.833252	40.277009
516.992798	40.290113
517.152283	40.304239
517.311768	40.320205
517.471252	40.334864
517.630737	40.347992
517.790222	40.362433
517.949646	40.376941
518.109131	40.392129
518.268555	40.408478
518.427979	40.423282
518.587463	40.437583
518.746887	40.450727
518.906250	40.462396
519.065674	40.473329
519.225098	40.483101
519.384460	40.492528
519.543884	40.500345
519.703247	40.508223
519.862610	40.515804
520.021973	40.523165
520.181335	40.530617
520.340698	40.538876
520.500000	40.547713
520.659363	40.555920
520.818665	40.564401
520.977966	40.573341
521.137329	40.579449
521.296631	40.584709
521.455872	40.591423
521.615173	40.599820
521.774475	40.607102
521.933716	40.615255
522.093018	40.619318
522.252258	40.622340
522.411499	40.624424
522.570740	40.629010
522.729980	40.632525
522.889221	40.635161
523.048401	40.636305
523.207642	40.638078
523.366821	40.641701
523.526001	40.644597
523.685181	40.644844
523.844360	40.646479
524.003540	40.648839
524.162720	40.650757
524.321838	40.654466
524.481018	40.659200
524.640137	40.663010
524.799316	40.666389
524.958435	40.670834
525.117554	40.675755
525.276611	40.683991
525.435730	40.694744
525.594849	40.706778
525.753906	40.717702
525.912964	40.729400
526.072083	40.742493
526.231140	40.758332
526.390198	40.773622
526.549255	40.789616
526.708252	40.805155
526.867310	40.819861
527.026306	40.832737
527.185364	40.846372
527.344360	40.857398
527.503357	40.868111
527.662354	40.878103
527.821350	40.886411
527.980286	40.890927
528.139282	40.892701
528.298218	40.891438
528.457214	40.890490
528.616150	40.888131
528.775085	40.884671
528.934021	40.877800
529.092896	40.870741
529.251831	40.861420
529.410767	40.849497
529.569641	40.836999
529.728516	40.823221
529.887451	40.808049
530.046326	40.794670
530.205200	40.779666
530.364014	40.764494
530.522888	40.753434
530.681702	40.745041
530.840576	40.735407
530.999390	40.727367
531.158203	40.722734
531.317017	40.721191
531.475830	40.724292
531.634644	40.727636
531.793457	40.730062
531.952209	40.732519
532.110962	40.738384
532.269775	40.747781
532.428528	40.759137
532.587280	40.769154
532.746033	40.781286
532.904724	40.794959
533.063477	40.809278
533.222229	40.824467
533.380920	40.843121
533.539612	40.861113
533.698303	40.877468
533.856995	40.893308
534.015686	40.910658
534.174377	40.927326
534.333008	40.945830
534.491699	40.964976
534.650330	40.982622
534.808960	40.998873
534.967651	41.015569
535.126221	41.032411
535.284851	41.048367
535.443481	41.062568
535.602112	41.075163
535.760681	41.089390
535.919250	41.102562
536.077881	41.115234
536.236450	41.126223
536.395020	41.134109
536.553528	41.141728
536.712097	41.152686
536.870667	41.162311
537.029175	41.170729
537.187683	41.178157
537.346191	41.186201
537.504700	41.191704
537.663208	41.195938
537.821716	41.199207
537.980225	41.201790
538.138672	41.205106
538.297180	41.208481
538.455627	41.210254
538.614075	41.208364
538.772522	41.204921
538.930969	41.202387
539.089417	41.199387
539.247803	41.195429
539.406250	41.193299
539.564636	41.194036
539.723083	41.195186
539.881470	41.193392
540.039856	41.193239
540.198242	41.192684
540.356567	41.192705
540.514954	41.194742
540.673279	41.194374
540.831665	41.193103
540.989990	41.190557
541.148315	41.188631
541.306641	41.185809
541.464966	41.182328
541.623291	41.181645
541.781555	41.184069
541.939880	41.190557
542.098145	41.195027
542.256409	41.199275
542.414673	41.205083
542.572937	41.213135
542.731201	41.220772
542.889465	41.229386
543.047668	41.237524
543.205933	41.248182
543.364136	41.257716
543.522339	41.268963
543.680542	41.277383
543.838745	41.289705
543.996948	41.301879
544.155090	41.314315
544.313293	41.326369
544.471436	41.338880
544.629639	41.352247
544.787781	41.365950
544.945923	41.377710
545.104065	41.389680
545.262146	41.403721
545.420288	41.418684
545.578369	41.433601
545.736511	41.445537
545.894592	41.455298
546.052673	41.461605
546.210754	41.467781
546.368835	41.470589
546.526917	41.474043
546.684937	41.477402
546.843018	41.478037
547.001038	41.479566
547.159058	41.479833
547.317078	41.479383
547.475098	41.478395
547.633118	41.478098
547.791138	41.477159
547.949097	41.474377
548.107117	41.472899
548.265076	41.469986
548.423035	41.467500
548.580994	41.463337
548.738953	41.458311
548.896912	41.457306
549.054810	41.459292
549.212769	41.463497
549.370667	41.468183
549.528625	41.471974
549.686523	41.475044
549.844421	41.475663
550.002319	41.479093
550.160156	41.481399
550.318054	41.483948
550.475891	41.489790
550.633789	41.499104
550.791626	41.510079
550.949463	41.522876
551.107300	41.535895
551.265137	41.549664
551.422974	41.561931
551.580750	41.573712
551.738586	41.590724
551.896362	41.606159
552.054138	41.621186
552.211914	41.639056
552.369690	41.657896
552.527466	41.674308
552.685242	41.695337
552.842957	41.722804
553.000671	41.748570
553.158447	41.775322
553.316162	41.798199
553.473877	41.821061
553.631592	41.842799
553.789307	41.862008
553.946960	41.880108
554.104675	41.897745
554.262329	41.916540
554.419983	41.933586
554.577637	41.949196
554.735291	41.962185
554.892944	41.975863
555.050598	41.990374
555.208252	41.999784
555.365845	42.003169
555.523438	42.007273
555.681030	42.009916
555.838684	42.003943
555.996216	41.994068
556.153809	41.984465
556.311401	41.973066
556.468994	41.965111
556.626526	41.957997
556.784058	41.951561
556.941589	41.944323
557.099121	41.934820
557.256653	41.922477
557.414185	41.906526
557.571716	41.895265
557.729187	41.886984
557.886719	41.880491
558.044189	41.865936
558.201660	41.853761
558.359131	41.844221
558.516602	41.831729
558.674011	41.815698
558.831482	41.807804
558.988892	41.806375
559.146362	41.800824
559.303772	41.796391
559.461182	41.794314
559.618591	41.795032
559.776001	41.795129
559.933350	41.795875
560.090759	41.800202
560.248108	41.803468
560.405518	41.809867
560.562866	41.819921
560.720215	41.831401
560.877563	41.847749
561.034851	41.864301
561.192200	41.885467
561.349548	41.900760
561.506836	41.911978
561.664124	41.929630
561.821411	41.945128
561.978699	41.954071
562.135986	41.966112
562.293274	41.978937
562.450500	41.994156
562.607788	42.005262
562.765015	42.011709
562.922241	42.021443
563.079468	42.025192
563.236694	42.026468
563.393921	42.027465
563.551147	42.026658
563.708313	42.023924
563.865540	42.011675
564.022705	41.995703
564.179871	41.977057
564.337036	41.955989
564.494202	41.938752
564.651367	41.923377
564.808472	41.912321
564.965637	41.907800
565.122742	41.905902
565.279846	41.900696
565.436951	41.899418
565.594055	41.897956
565.751160	41.899774
565.908264	41.902739
566.065308	41.908898
566.222412	41.915817
566.379456	41.922493
566.536499	41.932469
566.693542	41.944151
566.850586	41.958515
567.007629	41.977089
567.164673	41.990022
567.321655	42.007407
567.478699	42.022405
567.635681	42.043841
567.792664	42.070919
567.949646	42.091471
568.106628	42.108189
568.263611	42.125165
568.420532	42.141102
568.577515	42.154833
568.734436	42.166887
568.891357	42.181577
569.048279	42.195393
569.205200	42.204295
569.362122	42.220054
569.518982	42.239599
569.675903	42.260397
569.832764	42.279173
569.989685	42.299644
570.146545	42.318805
570.303406	42.339104
570.460266	42.360080
570.617065	42.387847
570.773926	42.407083
570.930786	42.425448
571.087585	42.442273
571.244385	42.461359
571.401184	42.481517
571.557983	42.499875
571.714783	42.519077
571.871582	42.537800
572.028320	42.553808
572.185120	42.569373
572.341858	42.579905
572.498596	42.592032
572.655334	42.601285
572.812073	42.607810
572.968811	42.616748
573.125488	42.621647
573.282227	42.626836
573.438904	42.630311
573.595581	42.632030
573.752258	42.633527
573.908936	42.632512
574.065613	42.628519
574.222290	42.626646
574.378906	42.623200
574.535583	42.623047
574.692200	42.625018
574.848816	42.628465
575.005432	42.634494
575.162048	42.641495
575.318665	42.652683
575.475281	42.671906
575.631836	42.686597
575.788452	42.697915
575.945007	42.707788
576.101562	42.717668
576.258118	42.725900
576.414673	42.737307
576.571167	42.752706
576.727722	42.766482
576.884216	42.774810
577.040771	42.789985
577.197266	42.807239
577.353760	42.825091
577.510254	42.841277
577.666748	42.854528
577.823181	42.869282
577.979675	42.879099
578.136108	42.890148
578.292542	42.899200
578.449036	42.905610
578.605469	42.910344
578.761841	42.912168
578.918274	42.916622
579.074707	42.923777
579.231079	42.930157
579.387451	42.938167
579.543884	42.944764
579.700256	42.953839
579.856628	42.963495
580.012939	42.975590
580.169312	42.987992
580.325684	43.000399
580.481995	43.014035
580.638306	43.030915
580.794617	43.044090
580.950928	43.055356
581.107239	43.070974
581.263550	43.085661
581.419800	43.101378
581.576111	43.118022
581.732361	43.132301
581.888611	43.150273
582.044861	43.167031
582.201111	43.183162
582.357361	43.197909
582.513611	43.213007
582.669800	43.226851
582.826050	43.238223
582.982239	43.251382
583.138428	43.265578
583.294617	43.277796
583.450806	43.287299
583.606995	43.297089
583.763123	43.306191
583.919312	43.314795
584.075439	43.321831
584.231567	43.328499
584.387695	43.332182
584.543823	43.335091
584.699951	43.336583
584.856018	43.337531
585.012146	43.337499
585.168213	43.335283
585.324341	43.332782
585.480408	43.328691
585.636475	43.323468
585.792480	43.317655
585.948547	43.315422
586.104614	43.312485
586.260620	43.307596
586.416626	43.302535
586.572693	43.297081
586.728699	43.291681
586.884705	43.282827
587.040649	43.274780
587.196655	43.267962
587.352600	43.258719
587.508606	43.248230
587.664551	43.236088
587.820496	43.224480
587.976440	43.214433
588.132385	43.203596
588.288330	43.199533
588.444214	43.196167
588.600159	43.195758
588.756042	43.196988
588.911926	43.200928
589.067810	43.203258
589.223694	43.202555
589.379578	43.204596
589.535400	43.205606
589.691284	43.209243
589.847107	43.209506
590.002930	43.215065
590.158752	43.220405
590.314575	43.226858
590.470398	43.234185
590.626221	43.245053
590.781982	43.258809
590.937805	43.274030
591.093567	43.289660
591.249329	43.307180
591.405090	43.321887
591.560852	43.336258
591.716614	43.353888
591.872375	43.374570
592.028076	43.398418
592.183777	43.419532
592.339539	43.444740
592.495239	43.471897
592.650940	43.499292
592.806580	43.524295
592.962280	43.548881
593.117920	43.571142
593.273621	43.592223
593.429260	43.614495
593.584900	43.635744
593.740540	43.656921
593.896179	43.681693
594.051819	43.702274
594.207397	43.720922
594.363037	43.738265
594.518616	43.753235
594.674194	43.768715
594.829773	43.779022
594.985352	43.785415
595.140930	43.784744
595.296509	43.782192
595.452026	43.775940
595.607605	43.767311
595.763123	43.760747
595.918640	43.754631
596.074158	43.749006
596.229675	43.742244
596.385132	43.741340
596.540649	43.739480
596.696106	43.738898
596.851624	43.737531
597.007080	43.733079
597.162537	43.729045
597.317993	43.726757
597.473389	43.724060
597.628845	43.728173
597.784241	43.736212
597.939697	43.746540
598.095093	43.758524
598.250488	43.771183
598.405884	43.788943
598.561279	43.809522
598.716614	43.826277
598.872009	43.840218
599.027344	43.855275
599.182739	43.871688
599.338074	43.883844
599.493408	43.895893
599.648682	43.905088
599.804016	43.915359
599.959351	43.929230
600.114624	43.936814
600.269958	43.946368
600.425232	43.953996
600.580505	43.959115
600.735779	43.955754
600.890991	43.945812
601.046265	43.934739
601.201477	43.918070
601.356750	43.901321
601.511963	43.884774
601.667175	43.870637
601.822388	43.857187
601.977600	43.845164
602.132812	43.832950
602.287964	43.824349
602.443115	43.819972
602.598328	43.809818
602.753479	43.803095
602.908630	43.797915
603.063782	43.791761
603.218872	43.789833
603.374023	43.791422
603.529114	43.797082
603.684265	43.807436
603.839355	43.818559
603.994446	43.829804
604.149536	43.840028
604.304626	43.853474
604.459656	43.866259
604.614746	43.875299
604.769775	43.878944
604.924805	43.882026
605.079834	43.884144
605.234863	43.887937
605.389893	43.885721
605.544922	43.890066
605.699890	43.895093
605.854919	43.900391
606.009888	43.902839
606.164856	43.897250
606.319824	43.889512
606.474792	43.876491
606.629761	43.862187
606.784668	43.849124
606.939636	43.841157
607.094543	43.835162
607.249451	43.829050
607.404358	43.823726
607.559265	43.822071
607.714172	43.823364
607.869080	43.829865
608.023926	43.840523
608.178772	43.854991
608.333679	43.868917
608.488525	43.884245
608.643372	43.897297
608.798218	43.918157
608.953003	43.937882
609.107849	43.959395
609.262634	43.986420
609.417419	44.017785
609.572266	44.052314
609.726990	44.083236
609.881775	44.107319
610.036560	44.129314
610.191345	44.154006
610.346069	44.182305
610.500793	44.206968
610.655579	44.232933
610.810303	44.255205
610.964966	44.269491
611.119690	44.280247
611.274414	44.289468
611.429077	44.293580
611.583801	44.300544
611.738464	44.299386
611.893127	44.293348
612.047791	44.282817
612.202454	44.271304
612.357056	44.261666
612.511719	44.253748
612.666321	44.248684
612.820923	44.247072
612.975586	44.245023
613.130188	44.241725
613.284729	44.233077
613.439331	44.221503
613.593933	44.214697
613.748474	44.207796
613.903015	44.205439
614.057556	44.207284
614.212097	44.215172
614.366638	44.223385
614.521179	44.235836
614.675720	44.251018
614.830200	44.271448
614.984680	44.289224
615.139221	44.313533
615.293701	44.338727
615.448181	44.367291
615.602600	44.392320
615.757080	44.413282
615.911499	44.434464
616.065979	44.461610
616.220398	44.487895
616.374817	44.514559
616.529236	44.534726
616.683655	44.555041
616.838074	44.566664
616.992432	44.571673
617.146851	44.575878
617.301208	44.578939
617.455566	44.581644
617.609924	44.585900
617.764282	44.582906
617.918579	44.579328
618.072937	44.579639
618.227234	44.581145
618.381592	44.585189
618.535889	44.583722
618.690186	44.580006
618.844482	44.577235
618.998718	44.569749
619.153015	44.563781
619.307312	44.559691
619.461548	44.558886
619.615784	44.567318
619.770020	44.576578
619.924255	44.594933
620.078491	44.618411
620.232666	44.644721
620.386902	44.666756
620.541077	44.685757
620.695251	44.703833
620.849487	44.724955
621.003601	44.744595
621.157776	44.764743
621.311951	44.780411
621.466064	44.793808
621.620239	44.804307
621.774353	44.817168
621.928467	44.827495
622.082581	44.839858
622.236694	44.850174
622.390808	44.864106
622.544861	44.875135
622.698975	44.884793
622.853027	44.887566
623.007080	44.887507
623.161133	44.887375
623.315186	44.888975
623.469238	44.889819
623.623230	44.888259
623.777283	44.887825
623.931274	44.886364
624.085266	44.889569
624.239258	44.889641
624.393250	44.889079
624.547241	44.885784
624.701233	44.885277
624.855164	44.888378
625.009094	44.890191
625.163086	44.897026
625.317017	44.902471
625.470947	44.903074
625.624817	44.906156
625.778748	44.907821
625.932617	44.912187
626.086548	44.914312
626.240417	44.914836
626.394287	44.912607
626.548157	44.912373
626.702026	44.914485
626.855896	44.913768
627.009705	44.908343
627.163574	44.901788
627.317383	44.898256
627.471191	44.899494
627.625000	44.903552
627.778809	44.911575
627.932556	44.920262
628.086365	44.934617
628.240112	44.945672
628.393921	44.956745
628.547668	44.964542
628.701416	44.969286
628.855164	44.974664
629.008850	44.983606
629.162598	44.994149
629.316284	45.006576
629.470032	45.016974
629.623718	45.026871
629.777405	45.039957
629.931091	45.050955
630.084778	45.069689
630.238403	45.082775
630.392090	45.093341
630.545715	45.099265
630.699341	45.105206
630.852966	45.108416
631.006592	45.104194
631.160217	45.096987
631.313843	45.086891
631.467407	45.076453
631.620972	45.069235
631.774597	45.060175
631.928162	45.048064
632.081726	45.036086
632.235229	45.023046
632.388794	45.008463
632.542358	44.994664
632.695862	44.979678
632.849365	44.963434
633.002869	44.949184
633.156372	44.935064
633.309875	44.924437
633.463379	44.913672
633.616821	44.903801
633.770325	44.892710
633.923767	44.880864
634.077209	44.868396
634.230652	44.858739
634.384094	44.852902
634.537537	44.846317
634.690918	44.842758
634.844299	44.845969
634.997742	44.850539
635.151123	44.854215
635.304504	44.860653
635.457886	44.867764
635.611206	44.877119
635.764587	44.889789
635.917908	44.901642
636.071289	44.915139
636.224609	44.926856
636.377930	44.941500
636.531250	44.956043
636.684570	44.972083
636.837830	44.986404
636.991150	44.998549
637.144409	45.017029
637.297668	45.034940
637.450928	45.052725
637.604187	45.069643
637.757446	45.083546
637.910645	45.095611
638.063904	45.109852
638.217102	45.123112
638.370300	45.137741
638.523499	45.151866
638.676697	45.163654
638.829895	45.169825
638.983093	45.177245
639.136230	45.183001
639.289429	45.188673
639.442566	45.192054
639.595703	45.195813
639.748840	45.202005
639.901978	45.213023
640.055054	45.224144
640.208191	45.236707
640.361267	45.241379
640.514343	45.243739
640.667419	45.246547
640.820496	45.249687
640.973572	45.250166
641.126648	45.253387
641.279663	45.259592
641.432739	45.265054
641.585754	45.272623
641.738770	45.281934
641.891785	45.296024
642.044800	45.313449
642.197754	45.334198
642.350769	45.353509
642.503723	45.370404
642.656738	45.386986
642.809692	45.402031
642.962646	45.416308
643.115540	45.434193
643.268494	45.447105
643.421448	45.467145
643.574341	45.486353
643.727234	45.507238
643.880127	45.528819
644.033020	45.553970
644.185913	45.577641
644.338806	45.597952
644.491699	45.614666
644.644531	45.631470
644.797363	45.644854
644.950195	45.660214
645.103027	45.669231
645.255859	45.676228
645.408691	45.683760
645.561462	45.692570
645.714294	45.701615
645.867065	45.705451
646.019836	45.704179
646.172607	45.698429
646.325378	45.689023
646.478149	45.679195
646.630859	45.671859
646.783630	45.666538
646.936340	45.665222
647.089050	45.664851
647.241760	45.661088
647.394470	45.658860
647.547180	45.658289
647.699829	45.657436
647.852539	45.659519
648.005188	45.661012
648.157837	45.663971
648.310486	45.664759
648.463135	45.666336
648.615784	45.668689
648.768433	45.672791
648.921021	45.681089
649.073608	45.692490
649.226257	45.705177
649.378845	45.721592
649.531372	45.736752
649.683960	45.753632
649.836548	45.770542
649.989075	45.785762
650.141663	45.798358
650.294189	45.813359
650.446716	45.828493
650.599243	45.844909
650.751709	45.858870
650.904236	45.875323
651.056702	45.889380
651.209229	45.906309
651.361694	45.923371
651.514160	45.939058
651.666626	45.955440
651.819092	45.970217
651.971497	45.983793
652.123962	45.996871
652.276367	46.011381
652.428772	46.028805
652.581177	46.047899
652.733582	46.063434
652.885986	46.075222
653.038330	46.083129
653.190735	46.089343
653.343079	46.095358
653.495422	46.099893
653.647827	46.104048
653.800110	46.104882
653.952454	46.100930
654.104797	46.096940
654.257080	46.088309
654.409424	46.082756
654.561707	46.075391
654.713989	46.067342
654.866272	46.055508
655.018555	46.043763
655.170776	46.031220
655.323059	46.016246
655.475281	45.999104
655.627502	45.979269
655.779724	45.956619
655.931946	45.933687
656.084167	45.911738
656.236328	45.891501
656.388550	45.869068
656.540710	45.848592
656.692871	45.828812
656.845093	45.811762
656.997192	45.797402
657.149353	45.783659
657.301514	45.769792
657.453613	45.755171
657.605774	45.744185
657.757874	45.731973
657.909973	45.724828
658.062073	45.717223
658.214172	45.707979
658.366211	45.701944
658.518311	45.695000
658.670349	45.690972
658.822388	45.691906
658.974426	45.696529
659.126465	45.700906
659.278503	45.707536
659.430481	45.716417
659.582520	45.723492
659.734497	45.730758
659.886475	45.742169
660.038452	45.755369
660.190430	45.769213
660.342407	45.787146
660.494385	45.804508
660.646301	45.821610
660.798279	45.838978
660.950195	45.856622
661.102112	45.875290
661.254028	45.893388
661.405884	45.911914
661.557800	45.931244
661.709717	45.949904
661.861572	45.969753
662.013428	45.988331
662.165283	46.007644
662.317139	46.025892
662.468994	46.043941
662.620789	46.061945
662.772644	46.076919
662.924438	46.089042
663.076233	46.094097
663.228027	46.098579
663.379822	46.103333
663.531616	46.105358
663.683411	46.108140
663.835144	46.112233
663.986877	46.111272
664.138611	46.111136
664.290344	46.115512
664.442078	46.116884
664.593811	46.117680
664.745544	46.116533
664.897217	46.110601
665.048889	46.103421
665.200623	46.097836
665.352295	46.089498
665.503967	46.079501
665.655579	46.069592
665.807251	46.060398
665.958862	46.052632
666.110535	46.049770
666.262146	46.045765
666.413757	46.042675
666.565369	46.040506
666.716919	46.039749
666.868530	46.039135
667.020081	46.043636
667.171692	46.044284
667.323242	46.044431
667.474792	46.046396
667.626343	46.047935
667.777832	46.048356
667.929382	46.050764
668.080872	46.054110
668.232422	46.056397
668.383911	46.057141
668.535400	46.059877
668.686890	46.062139
668.838318	46.068230
668.989807	46.074657
669.141235	46.083471
669.292725	46.094417
669.444153	46.102625
669.595581	46.116156
669.747009	46.123683
669.898376	46.129484
670.049805	46.134982
670.201172	46.140653
670.352539	46.144908
670.503967	46.147316
670.655273	46.152021
670.806641	46.157877
670.958008	46.162722
671.109375	46.166168
671.260681	46.169749
671.411987	46.176969
671.563293	46.186104
671.714600	46.198189
671.865906	46.209231
672.017212	46.219044
672.168457	46.226895
672.319763	46.234403
672.471008	46.241228
672.622253	46.244968
672.773499	46.249471
672.924744	46.255533
673.075928	46.259061
673.227173	46.265966
673.378357	46.272385
673.529541	46.278193
673.680786	46.283116
673.831909	46.289053
673.983093	46.296788
674.134277	46.305074
674.285400	46.313252
674.436584	46.323974
674.587708	46.331233
674.738831	46.337479
674.889954	46.339445
675.041077	46.342376
675.192139	46.343666
675.343262	46.343743
675.494324	46.346095
675.645386	46.346679
675.796448	46.350875
675.947510	46.354296
676.098572	46.360055
676.249634	46.366058
676.400635	46.373142
676.551636	46.381293
676.702698	46.390349
676.853699	46.401424
677.004639	46.416932
677.155640	46.435085
677.306641	46.451911
677.457581	46.466808
677.608521	46.479696
677.759521	46.491537
677.910461	46.506811
678.061401	46.521813
678.212280	46.539736
678.363220	46.558605
678.514099	46.576531
678.664978	46.596829
678.815918	46.616362
678.966797	46.634069
679.117615	46.650338
679.268494	46.664255
679.419373	46.677124
679.570190	46.690959
679.721008	46.701649
679.871826	46.710293
680.022644	46.711622
680.173462	46.710987
680.324280	46.708912
680.475037	46.705732
680.625854	46.707555
680.776611	46.709342
680.927368	46.711864
681.078125	46.711947
681.228882	46.710739
681.379639	46.708697
681.530334	46.705120
681.681030	46.702147
681.831787	46.700120
681.982483	46.700855
682.133179	46.700177
682.283813	46.699456
682.434509	46.698481
682.585205	46.699864
682.735840	46.704071
682.886475	46.706697
683.037109	46.709856
683.187744	46.711840
683.338379	46.714576
683.488953	46.715866
683.639587	46.717018
683.790161	46.718391
683.940735	46.717758
684.091309	46.719168
684.241882	46.719276
684.392456	46.719440
684.543030	46.720822
684.693542	46.719152
684.844055	46.716029
684.994568	46.710411
685.145081	46.706056
685.295593	46.702322
685.446106	46.699874
685.596619	46.693254
685.747070	46.686339
685.897522	46.680452
686.047974	46.677062
686.198425	46.674747
686.348877	46.676274
686.499329	46.680380
686.649719	46.680725
686.800171	46.681054
686.950562	46.681195
687.100952	46.680777
687.251343	46.684941
687.401733	46.687929
687.552124	46.692715
687.702454	46.696482
687.852783	46.699408
688.003174	46.703459
688.153503	46.709349
688.303833	46.716197
688.454102	46.722729
688.604431	46.730700
688.754700	46.735442
688.905029	46.740065
689.055298	46.744492
689.205566	46.748460
689.355835	46.751933
689.506104	46.755784
689.656311	46.762511
689.806580	46.771350
689.956787	46.781841
690.106995	46.792367
690.257202	46.798774
690.407410	46.807032
690.557617	46.814148
690.707764	46.824501
690.857971	46.833868
691.008118	46.847605
691.158264	46.859603
691.308411	46.870558
691.458557	46.879997
691.608704	46.890085
691.758789	46.902001
691.908936	46.913841
692.059021	46.926922
692.209106	46.939498
692.359192	46.953010
692.509277	46.963670
692.659302	46.973773
692.809387	46.981832
692.959412	46.989050
693.109436	46.996364
693.259460	47.000454
693.409485	47.004305
693.559509	47.008095
693.709534	47.009051
693.859497	47.010998
694.009521	47.009836
694.159485	47.006132
694.309448	47.001939
694.459412	46.997618
694.609314	46.994643
694.759277	46.992947
694.909180	46.993310
695.059143	46.994840
695.209045	46.997696
695.358948	46.997698
695.508850	46.996966
695.658691	46.995401
695.808594	46.992284
695.958435	46.990673
696.108337	46.990495
696.258179	46.997100
696.408020	47.005385
696.557800	47.014742
696.707642	47.025640
696.857483	47.039400
697.007263	47.052089
697.157043	47.068219
697.306824	47.086755
697.456604	47.109032
697.606384	47.128917
697.756165	47.148904
697.905884	47.168398
698.055603	47.186294
698.205383	47.205116
698.355103	47.219885
698.504822	47.237429
698.654480	47.254384
698.804199	47.272318
698.953857	47.286299
699.103577	47.299152
699.253235	47.307214
699.402893	47.312640
699.552551	47.313047
699.702148	47.313492
699.851807	47.309758
700.001404	47.304230
700.151062	47.299362
700.300659	47.292997
700.450256	47.284402
700.599792	47.272560
700.749390	47.260082
700.898987	47.245884
701.048523	47.226477
701.198059	47.204857
701.347595	47.189575
701.497131	47.174636
701.646667	47.159661
701.796204	47.148275
701.945679	47.137333
702.095154	47.124787
702.244690	47.115214
702.394165	47.104516
702.543640	47.098174
702.693054	47.089210
702.842529	47.080041
702.991943	47.072895
703.141418	47.063727
703.290833	47.053511
703.440247	47.041126
703.589661	47.033759
703.739014	47.025078
703.888428	47.017586
704.037781	47.013523
704.187134	47.008998
704.336487	47.004600
704.485840	46.999820
704.635193	46.996488
704.784546	46.989695
704.933838	46.986620
705.083191	46.984468
705.232483	46.981929
705.381775	46.983264
705.531067	46.985627
705.680359	46.993730
705.829590	47.005165
705.978882	47.017780
706.128113	47.032905
706.277344	47.049902
706.426575	47.070591
706.575806	47.091550
706.725037	47.115225
706.874207	47.138766
707.023438	47.162663
707.172607	47.187563
707.321777	47.207425
707.470947	47.226440
707.620117	47.243884
707.769287	47.260332
707.918396	47.274374
708.067505	47.290140
708.216675	47.302086
708.365784	47.310683
708.514893	47.313134
708.663940	47.313784
708.813049	47.314315
708.962097	47.312267
709.111206	47.305569
709.260254	47.297368
709.409302	47.289487
709.558350	47.277516
709.707397	47.264245
709.856384	47.250043
710.005432	47.236118
710.154419	47.224938
710.303406	47.217361
710.452393	47.209804
710.601379	47.201429
710.750305	47.196162
710.899292	47.193827
711.048218	47.191001
711.197205	47.193863
711.346130	47.200577
711.495056	47.211377
711.643921	47.220912
711.792847	47.230377
711.941711	47.242521
712.090637	47.257011
712.239502	47.270233
712.388367	47.279829
712.537231	47.293309
712.686096	47.305933
712.834900	47.318545
712.983765	47.332417
713.132568	47.344834
713.281372	47.357414
713.430176	47.369309
713.578979	47.381595
713.727722	47.392725
713.876526	47.403698
714.025269	47.413278
714.174072	47.420983
714.322815	47.426780
714.471558	47.432411
714.620239	47.436867
714.768982	47.439012
714.917664	47.438893
715.066406	47.439390
715.215088	47.441232
715.363770	47.443442
715.512451	47.445812
715.661072	47.449842
715.809753	47.453647
715.958374	47.456783
716.107056	47.459637
716.255676	47.460809
716.404297	47.463677
716.552917	47.471600
716.701477	47.480685
716.850098	47.486120
716.998657	47.494260
717.147217	47.501315
717.295776	47.506263
717.444336	47.510866
717.592896	47.516575
717.741455	47.523565
717.889954	47.530365
718.038513	47.535160
718.187012	47.540060
718.335510	47.547288
718.484009	47.551953
718.632446	47.553988
718.780945	47.557219
718.929382	47.560894
719.077881	47.563544
719.226318	47.566736
719.374756	47.570347
719.523132	47.571967
719.671570	47.572960
719.820007	47.573199
719.968384	47.572894
720.116760	47.573047
720.265137	47.574887
720.413513	47.576365
720.561890	47.578337
720.710205	47.580378
720.858582	47.584284
721.006897	47.591341
721.155212	47.598875
721.303528	47.605866
721.451843	47.615128
721.600159	47.625342
721.748413	47.638872
721.896729	47.651833
722.044983	47.665432
722.193237	47.682320
722.341492	47.699287
722.489746	47.714623
722.637939	47.728142
722.786194	47.744937
722.934387	47.759990
723.082581	47.774069
723.230774	47.787281
723.378967	47.801282
723.527161	47.815239
723.675354	47.828483
723.823486	47.840864
723.971619	47.850814
724.119751	47.860735
724.267883	47.868957
724.416016	47.876658
724.564148	47.886726
724.712219	47.894496
724.860352	47.901428
725.008423	47.908892
725.156494	47.912950
725.304565	47.914468
725.452637	47.917156
725.600647	47.919487
725.748718	47.922691
725.896729	47.924173
726.044739	47.926027
726.192749	47.928351
726.340759	47.928713
726.488770	47.928400
726.636719	47.927654
726.784729	47.926153
726.932678	47.926148
727.080627	47.926401
727.228577	47.929010
727.376526	47.930457
727.524414	47.932541
727.672363	47.932704
727.820251	47.934000
727.968140	47.934670
728.116028	47.934414
728.263916	47.934724
728.411804	47.932515
728.559631	47.931370
728.707520	47.928096
728.855347	47.925046
729.003174	47.921176
729.151001	47.917763
729.298828	47.915527
729.446594	47.912559
729.594421	47.909339
729.742188	47.906580
729.890015	47.903022
730.037781	47.899561
730.185486	47.897487
730.333252	47.897119
730.481018	47.894833
730.628723	47.893240
730.776428	47.892296
730.924194	47.890858
731.071899	47.892027
731.219543	47.892250
731.367249	47.893669
731.514954	47.895253
731.662598	47.896202
731.810242	47.899656
731.957886	47.903457
732.105530	47.905867
732.253174	47.910697
732.400818	47.916916
732.548401	47.925485
732.695984	47.934498
732.843567	47.942057
732.991150	47.949184
733.138733	47.952850
733.286316	47.956154
733.433838	47.957736
733.581421	47.958871
733.728943	47.958943
733.876465	47.959412
734.023987	47.957457
734.171509	47.956275
734.318970	47.955281
734.466492	47.954597
734.613953	47.953051
734.761414	47.951284
734.908875	47.952648
735.056335	47.954938
735.203796	47.957447
735.351196	47.958736
735.498657	47.960248
735.646057	47.962537
735.793457	47.968198
735.940857	47.975023
736.088257	47.981806
736.235657	47.987490
736.382996	47.995222
736.530334	48.003976
736.677734	48.012751
736.825073	48.022498
736.972351	48.032480
737.119690	48.044895
737.267029	48.056285
737.414307	48.066618
737.561584	48.078720
737.708862	48.092119
737.856140	48.101977
738.003418	48.111913
738.150696	48.118856
738.297913	48.125265
738.445190	48.128445
738.592407	48.129821
738.739624	48.130486
738.886841	48.130221
739.033997	48.132022
739.181213	48.132582
739.328369	48.133417
739.475586	48.133707
739.622742	48.133190
739.769897	48.131799
739.916992	48.134642
740.064148	48.135665
740.211304	48.138130
740.358398	48.140202
740.505493	48.144735
740.652588	48.148834
740.799683	48.153154
740.946777	48.158186
741.093811	48.162457
741.240906	48.168574
741.387939	48.176933
741.534973	48.185163
741.682007	48.191683
741.829041	48.197267
741.976013	48.201915
742.123047	48.208325
742.270020	48.213428
742.416992	48.219315
742.563965	48.226288
742.710938	48.232326
742.857910	48.234799
743.004883	48.236122
743.151794	48.237595
743.298706	48.240915
743.445618	48.241837
743.592529	48.238964
743.739441	48.237225
743.886353	48.234489
744.033203	48.234052
744.180115	48.232371
744.326965	48.232224
744.473816	48.234280
744.620667	48.235100
744.767456	48.237314
744.914307	48.238594
745.061096	48.241952
745.207947	48.246308
745.354736	48.250859
745.501526	48.257525
745.648254	48.265437
745.795044	48.272733
745.941833	48.281288
746.088562	48.289411
746.235291	48.297076
746.382019	48.303644
746.528748	48.311655
746.675476	48.318656
746.822144	48.324912
746.968872	48.331124
747.115540	48.337072
747.262207	48.340294
747.408875	48.342690
747.555542	48.346545
747.702148	48.350276
747.848816	48.356050
747.995422	48.361193
748.142029	48.366867
748.288635	48.372427
748.435242	48.376622
748.581848	48.382239
748.728394	48.387789
748.875000	48.393783
749.021545	48.399589
749.168091	48.405172
749.314636	48.411725
749.461182	48.418743
749.607666	48.426406
749.754211	48.434560
749.900696	48.442107
750.047180	48.450647
750.193665	48.458237
750.340149	48.466685
750.486633	48.476037
750.633057	48.484504
750.779541	48.492265
750.925964	48.498066
751.072388	48.500860
751.218811	48.501748
751.365234	48.500273
751.511597	48.496419
751.658020	48.492090
751.804382	48.485698
751.950745	48.476462
752.097107	48.466897
752.243469	48.457134
752.389832	48.447569
752.536133	48.438245
752.682495	48.429922
752.828796	48.421237
752.975098	48.412506
753.121399	48.405964
753.267639	48.398364
753.413940	48.391878
753.560181	48.387378
753.706482	48.384112
753.852722	48.382384
753.998962	48.384081
754.145203	48.388588
754.291382	48.393887
754.437622	48.398196
754.583801	48.404722
754.729980	48.414195
754.876160	48.426674
755.022339	48.438937
755.168518	48.450550
755.314697	48.462670
755.460815	48.475185
755.606934	48.487811
755.753052	48.501120
755.899170	48.514035
756.045288	48.526615
756.191406	48.537302
756.337463	48.546384
756.483521	48.554035
756.629639	48.559418
756.775696	48.562457
756.921692	48.564527
757.067749	48.564929
757.213806	48.565217
757.359802	48.566870
757.505798	48.567104
757.651794	48.564667
757.797791	48.562690
757.943787	48.561900
758.089783	48.561912
758.235718	48.561116
758.381653	48.560036
758.527588	48.557234
758.673523	48.555578
758.819458	48.555784
758.965393	48.556180
759.111267	48.560667
759.257202	48.566336
759.403076	48.572968
759.548950	48.582571
759.694824	48.592290
759.840698	48.602135
759.986511	48.609890
760.132385	48.618683
760.278198	48.628907
760.424011	48.639218
760.569824	48.649308
760.715637	48.658977
760.861389	48.668502
761.007202	48.677703
761.152954	48.687931
761.298706	48.698034
761.444458	48.709411
761.590210	48.718410
761.735962	48.726493
761.881653	48.734126
762.027405	48.741107
762.173096	48.746288
762.318787	48.751476
762.464478	48.754929
762.610168	48.759866
762.755798	48.764057
762.901489	48.769382
763.047119	48.772952
763.192749	48.772972
763.338379	48.771743
763.484009	48.773410
763.629639	48.775797
763.775208	48.776636
763.920837	48.777868
764.066406	48.778873
764.211975	48.779803
764.357544	48.781044
764.503052	48.783713
764.648621	48.785741
764.794128	48.788161
764.939697	48.788293
765.085205	48.788938
765.230713	48.787642
765.376221	48.784084
765.521667	48.780195
765.667175	48.775747
765.812622	48.773379
765.958069	48.771923
766.103516	48.771986
766.248962	48.774243
766.394409	48.775488
766.539795	48.777242
766.685181	48.779524
766.830627	48.783193
766.976013	48.787763
767.121399	48.791268
767.266724	48.793376
767.412109	48.795122
767.557434	48.797186
767.702820	48.800145
767.848145	48.801952
767.993469	48.805466
768.138733	48.809191
768.284058	48.813799
768.429382	48.817858
768.574646	48.822213
768.719910	48.826635
768.865173	48.830973
769.010437	48.838755
769.155701	48.847890
769.300903	48.856970
769.446167	48.865263
769.591370	48.873859
769.736572	48.880138
769.881775	48.886107
770.026978	48.893958
770.172119	48.902480
770.317322	48.909794
770.462463	48.916948
770.607605	48.923538
770.752747	48.930810
770.897888	48.937437
771.042969	48.945984
771.188110	48.954702
771.333191	48.964783
771.478271	48.975014
771.623352	48.984479
771.768433	48.994608
771.913513	49.002669
772.058533	49.008609
772.203613	49.014690
772.348633	49.018224
772.493652	49.021050
772.638672	49.023309
772.783691	49.022817
772.928650	49.020392
773.073669	49.018938
773.218628	49.018534
773.363586	49.016537
773.508545	49.015301
773.653503	49.015780
773.798462	49.016174
773.943359	49.015118
774.088257	49.014457
774.233215	49.013597
774.378113	49.010358
774.522949	49.007984
774.667847	49.005497
774.812744	49.001359
774.957581	48.996639
775.102417	48.991063
775.247253	48.985568
775.392090	48.981125
775.536926	48.979314
775.681763	48.979130
775.826538	48.977619
775.971313	48.975528
776.116089	48.973536
776.260864	48.973679
776.405640	48.972517
776.550415	48.971803
776.695129	48.969771
776.839905	48.968776
776.984619	48.969134
777.129333	48.970504
777.274048	48.973812
777.418701	48.975628
777.563416	48.976038
777.708069	48.977699
777.852722	48.980757
777.997375	48.985625
778.142029	48.992813
778.286682	49.000953
778.431335	49.009025
778.575928	49.017949
778.720520	49.030417
778.865112	49.043401
779.009705	49.058798
779.154297	49.074521
779.298889	49.090891
779.443420	49.108284
779.588013	49.126593
779.732544	49.144315
779.877075	49.160821
780.021606	49.175998
780.166077	49.194243
780.310608	49.211881
780.455078	49.231306
780.599548	49.251163
780.744019	49.270912
780.888489	49.289982
781.032959	49.309143
781.177429	49.326368
781.321838	49.342190
781.466248	49.356574
781.610657	49.370723
781.755066	49.383417
781.899475	49.393692
782.043884	49.401860
782.188232	49.408647
782.332581	49.412669
782.476929	49.417644
782.621277	49.419602
782.765625	49.420213
782.909973	49.417204
783.054260	49.410513
783.198608	49.403416
783.342896	49.396923
783.487183	49.389047
783.631470	49.380458
783.775696	49.370541
783.919983	49.359251
784.064209	49.348557
784.208435	49.338180
784.352722	49.328627
784.496887	49.318883
784.641113	49.309591
784.785339	49.298877
784.929504	49.289576
785.073669	49.279732
785.217896	49.270964
785.362000	49.260039
785.506165	49.252350
785.650330	49.247921
785.794434	49.246611
785.938599	49.247562
786.082703	49.248839
786.226807	49.248528
786.370911	49.248786
786.514954	49.249640
786.659058	49.251823
786.803101	49.254461
786.947144	49.257494
787.091187	49.260739
787.235229	49.264955
787.379272	49.267395
787.523254	49.271046
787.667297	49.276214
787.811279	49.280233
787.955261	49.285196
788.099243	49.289557
788.243225	49.294457
788.387146	49.300812
788.531128	49.305452
788.675049	49.310348
788.818970	49.315532
788.962891	49.323361
789.106812	49.329521
789.250671	49.336314
789.394592	49.343032
789.538452	49.347276
789.682312	49.352391
789.826172	49.356475
789.970032	49.360051
790.113892	49.360872
790.257690	49.362197
790.401550	49.361841
790.545349	49.360444
790.689148	49.359819
790.832947	49.361464
790.976685	49.361623
791.120483	49.362455
791.264221	49.360410
791.408020	49.356482
791.551758	49.351768
791.695435	49.343327
791.839172	49.333722
791.982910	49.327949
792.126587	49.322223
792.270264	49.315963
792.414001	49.311006
792.557617	49.305907
792.701294	49.302404
792.844971	49.298807
792.988586	49.294719
793.132263	49.292826
793.275879	49.290995
793.419495	49.291289
793.563110	49.293432
793.706665	49.295532
793.850281	49.302479
793.993835	49.310072
794.137390	49.319283
794.280945	49.332222
794.424500	49.346949
794.568054	49.362510
794.711548	49.375739
794.855103	49.388943
794.998596	49.401168
795.142090	49.413328
795.285583	49.427149
795.429016	49.440715
795.572510	49.454387
795.715942	49.468023
795.859436	49.484514
796.002869	49.499110
796.146301	49.516112
796.289673	49.534068
796.433105	49.550403
796.576477	49.565130
796.719910	49.578011
796.863281	49.590612
797.006653	49.602162
797.149963	49.611095
797.293335	49.618878
797.436707	49.630969
797.580017	49.644664
797.723328	49.655091
797.866638	49.665221
798.009949	49.676789
798.153198	49.686947
798.296509	49.695119
798.439758	49.701576
798.583008	49.707246
798.726257	49.713282
798.869507	49.718289
799.012756	49.722175
799.156006	49.724200
799.299194	49.725963
799.442383	49.725999
799.585571	49.724684
799.728760	49.722009
799.871948	49.717904
800.015076	49.712230
800.158264	49.703784
800.301392	49.691839
800.444519	49.679379
800.587646	49.667520
800.730774	49.655357
800.873840	49.640669
801.016968	49.625134
801.160034	49.609935
801.303101	49.593696
801.446167	49.577810
801.589233	49.561438
801.732239	49.545926
801.875305	49.529177
802.018311	49.509675
802.161316	49.491140
802.304321	49.474005
802.447327	49.457086
802.590332	49.439365
802.733276	49.423821
802.876282	49.411140
803.019226	49.402415
803.162170	49.394468
803.305115	49.387953
803.447998	49.382435
803.590942	49.379931
803.733826	49.377621
803.876709	49.376153
804.019592	49.378080
804.162476	49.383070
804.305359	49.390885
804.448181	49.398208
804.591064	49.406825
804.733887	49.417578
804.876709	49.431502
805.019531	49.445078
805.162354	49.461489
805.305115	49.478228
805.447937	49.496329
805.590698	49.513678
805.733459	49.531594
805.876221	49.549969
806.018982	49.568802
806.161682	49.587642
806.304443	49.606829
806.447144	49.623183
806.589844	49.640604
806.732544	49.657723
806.875244	49.672389
807.017883	49.686383
807.160583	49.699078
807.303223	49.708762
807.445862	49.718052
807.588501	49.724512
807.731140	49.729915
807.873779	49.734812
808.016357	49.735709
808.158936	49.735934
808.301575	49.737084
808.444153	49.738189
808.586670	49.738679
808.729248	49.737762
808.871826	49.735829
809.014343	49.732035
809.156860	49.728877
809.299377	49.726027
809.441895	49.722893
809.584412	49.718965
809.726868	49.714510
809.869385	49.707448
810.011841	49.698852
810.154297	49.694298
810.296753	49.689885
810.439148	49.686266
810.581604	49.685551
810.723999	49.686619
810.866455	49.688586
811.008850	49.692089
811.151184	49.695821
811.293579	49.702505
811.435974	49.708566
811.578308	49.715120
811.720642	49.723754
811.863037	49.732941
812.005310	49.739661
812.147644	49.747514
812.289978	49.757043
812.432251	49.769005
812.574524	49.783587
812.716858	49.800785
812.859070	49.818174
813.001343	49.835591
813.143616	49.851062
813.285828	49.866363
813.428101	49.880172
813.570312	49.892795
813.712524	49.907205
813.854675	49.920576
813.996887	49.933979
814.139099	49.944652
814.281250	49.954827
814.423401	49.963576
814.565552	49.968609
814.707703	49.972662
814.849792	49.976072
814.991943	49.976570
815.134033	49.974393
815.276123	49.970236
815.418213	49.962461
815.560303	49.954628
815.702393	49.946231
815.844421	49.937147
815.986511	49.929260
816.128540	49.922216
816.270569	49.912541
816.412598	49.899770
816.554565	49.884599
816.696594	49.869066
816.838562	49.851246
816.980591	49.833139
817.122559	49.815149
817.264465	49.796512
817.406433	49.778729
817.548401	49.761431
817.690308	49.746671
817.832214	49.735764
817.974121	49.725271
818.116028	49.715340
818.257935	49.708414
818.399780	49.700114
818.541687	49.693036
818.683533	49.685340
818.825378	49.677545
818.967224	49.671250
819.109070	49.666510
819.250854	49.664806
819.392700	49.664379
819.534485	49.663951
819.676270	49.662448
819.818054	49.661191
819.959839	49.661587
820.101562	49.662888
820.243347	49.667832
820.385071	49.674453
820.526794	49.681432
820.668518	49.688342
820.810242	49.697884
820.951904	49.708663
821.093628	49.721111
821.235291	49.735652
821.376953	49.750562
821.518616	49.766344
821.660278	49.782123
821.801880	49.798613
821.943542	49.815935
822.085144	49.834954
822.226746	49.854906
822.368347	49.873893
822.509949	49.897672
822.651550	49.921414
822.793091	49.943477
822.934631	49.967009
823.076233	49.987221
823.217773	50.008221
823.359253	50.029288
823.500793	50.049841
823.642273	50.070191
823.783813	50.088216
823.925293	50.102970
824.066772	50.116350
824.208252	50.126878
824.349670	50.136189
824.491150	50.143799
824.632568	50.148507
824.773987	50.151271
824.915405	50.150936
825.056824	50.148553
825.198242	50.147238
825.339600	50.144635
825.481018	50.143885
825.622375	50.142650
825.763733	50.140937
825.905029	50.140814
826.046387	50.138613
826.187744	50.135686
826.329041	50.131470
826.470337	50.127268
826.611633	50.124787
826.752930	50.122262
826.894226	50.119706
827.035461	50.120977
827.176758	50.121803
827.317993	50.125314
827.459229	50.128681
827.600464	50.131589
827.741638	50.136632
827.882874	50.143857
828.024048	50.152954
828.165222	50.159095
828.306396	50.163593
828.447571	50.168654
828.588745	50.172218
828.729858	50.174869
828.871033	50.179750
829.012146	50.183814
829.153259	50.187908
829.294373	50.188226
829.435486	50.188806
829.576538	50.189600
829.717590	50.187907
829.858704	50.185102
829.999756	50.182924
830.140808	50.181034
830.281799	50.178738
830.422852	50.178589
830.563843	50.176833
830.704834	50.174564
830.845825	50.170905
830.986816	50.168731
831.127808	50.167338
831.268799	50.167409
831.409729	50.168465
831.550659	50.169965
831.691589	50.170101
831.832520	50.170529
831.973450	50.171289
832.114319	50.172221
832.255249	50.172800
832.396118	50.174419
832.536987	50.179141
832.677856	50.182969
832.818726	50.187499
832.959534	50.190300
833.100342	50.196292
833.241211	50.204431
833.382019	50.211549
833.522827	50.216857
833.663574	50.218718
833.804382	50.220433
833.945129	50.220553
834.085876	50.218706
834.226685	50.215741
834.367371	50.214413
834.508118	50.210158
834.648865	50.206049
834.789551	50.199721
834.930237	50.196751
835.070923	50.194000
835.211609	50.190907
835.352295	50.189885
835.492981	50.189451
835.633606	50.189323
835.774231	50.188825
835.914856	50.186953
836.055481	50.183509
836.196106	50.182400
836.336670	50.181850
836.477295	50.184367
836.617859	50.187909
836.758423	50.193449
836.898987	50.199618
837.039551	50.207015
837.180054	50.211057
837.320618	50.218915
837.461121	50.226401
837.601624	50.236601
837.742126	50.245481
837.882629	50.254958
838.023071	50.265444
838.163574	50.272924
838.304016	50.281480
838.444458	50.289379
838.584900	50.302290
838.725281	50.314311
838.865723	50.324210
839.006104	50.333664
839.146545	50.342621
839.286926	50.353420
839.427307	50.361153
839.567627	50.368041
839.708008	50.375659
839.848328	50.382945
839.988647	50.391295
840.128967	50.400166
840.269287	50.411319
840.409607	50.421733
840.549927	50.433814
840.690186	50.444772
840.830444	50.455553
840.970703	50.466737
841.110962	50.476777
841.251221	50.487198
841.391418	50.495457
841.531677	50.504034
841.671875	50.512570
841.812073	50.519981
841.952271	50.527514
842.092468	50.531023
842.232605	50.538586
842.372803	50.544174
842.512939	50.548237
842.653076	50.552273
842.793213	50.554357
842.933289	50.551746
843.073425	50.547657
843.213501	50.543801
843.353638	50.539465
843.493713	50.532039
843.633789	50.523577
843.773804	50.514722
843.913879	50.504752
844.053894	50.496581
844.193909	50.485332
844.333923	50.473608
844.473938	50.463442
844.613953	50.452913
844.753906	50.443937
844.893921	50.435253
845.033875	50.426620
845.173828	50.420035
845.313782	50.412648
845.453735	50.405204
845.593628	50.402268
845.733582	50.402944
845.873474	50.402329
846.013367	50.404838
846.153259	50.405011
846.293091	50.409398
846.432983	50.412925
846.572815	50.417781
846.712646	50.424959
846.852478	50.429057
846.992310	50.433277
847.132141	50.438557
847.271912	50.444849
847.411743	50.450443
847.551514	50.456145
847.691284	50.464857
847.831055	50.470393
847.970764	50.474382
848.110535	50.480341
848.250244	50.485761
848.389954	50.488845
848.529663	50.491413
848.669373	50.495892
848.809082	50.497985
848.948730	50.500435
849.088440	50.505374
849.228088	50.511816
849.367737	50.518297
849.507385	50.525499
849.646973	50.535876
849.786621	50.548951
849.926208	50.561818
850.065796	50.572425
850.205383	50.585554
850.344971	50.597295
850.484558	50.606810
850.624084	50.616702
850.763611	50.626380
850.903198	50.636866
851.042725	50.649167
851.182190	50.660443
851.321716	50.671118
851.461182	50.680192
851.600708	50.687421
851.740173	50.695912
851.879639	50.700698
852.019104	50.704173
852.158508	50.705407
852.297974	50.703657
852.437378	50.700555
852.576782	50.696419
852.716187	50.691871
852.855591	50.685582
852.994934	50.678506
853.134338	50.671889
853.273682	50.667471
853.413025	50.663748
853.552368	50.662209
853.691711	50.658871
853.830994	50.654266
853.970337	50.652894
854.109619	50.652828
854.248901	50.656603
854.388184	50.661747
854.527466	50.666880
854.666687	50.671687
854.805969	50.675498
854.945190	50.680207
855.084412	50.685803
855.223633	50.689552
855.362854	50.690512
855.502014	50.690912
855.641235	50.694856
855.780396	50.697686
855.919556	50.699847
856.058716	50.703292
856.197876	50.707693
856.336975	50.711836
856.476135	50.715341
856.615234	50.720148
856.754333	50.723975
856.893433	50.728066
857.032471	50.729332
857.171570	50.731219
857.310608	50.732447
857.449646	50.734235
857.588745	50.738039
857.727722	50.743765
857.866760	50.751467
858.005798	50.760627
858.144775	50.771041
858.283752	50.781469
858.422729	50.790772
858.561707	50.801420
858.700684	50.810168
858.839600	50.815315
858.978516	50.820755
859.117493	50.830950
859.256409	50.840026
859.395264	50.847734
859.534180	50.853824
859.673096	50.858050
859.811951	50.860161
859.950806	50.859909
860.089661	50.857046
860.228516	50.851322
860.367310	50.842489
860.506165	50.830298
860.644958	50.814501
860.783752	50.794849
860.922546	50.771092
861.061340	50.742983
861.200134	50.710272
861.338867	50.672712
861.477600	50.630052
861.616333	50.582045
