# Wavelength (nm)	Smoothed Intensity
299.383362	2.823713
299.552002	2.899375
299.720612	2.976124
299.889191	3.053935
300.057800	3.132786
300.226379	3.212652
300.394958	3.293509
300.563538	3.375334
300.732117	3.458102
300.900696	3.541791
301.069244	3.626377
301.237793	3.711834
301.406342	3.798141
301.574890	3.885272
301.743408	3.973205
301.911957	4.061915
302.080475	4.151379
302.248993	4.241572
302.417480	4.332472
302.585999	4.424054
302.754486	4.563072
302.922974	4.656570
303.091461	4.749985
303.259949	4.843008
303.428436	4.937007
303.596893	5.031689
303.765350	5.126269
303.933807	5.222039
304.102264	5.319011
304.270691	5.417368
304.439117	5.515459
304.607574	5.614364
304.776001	5.713415
304.944397	5.813101
305.112823	5.913395
305.281219	6.014070
305.449615	6.115734
305.618011	6.217703
305.786407	6.321050
305.954773	6.425540
306.123169	6.531574
306.291534	6.637875
306.459900	6.745194
306.628235	6.852858
306.796600	6.960604
306.964935	7.068666
307.133270	7.176912
307.301605	7.285548
307.469940	7.393888
307.638245	7.502708
307.806580	7.612435
307.974884	7.722755
308.143188	7.832885
308.311462	7.943356
308.479767	8.053402
308.648041	8.163104
308.816315	8.272962
308.984589	8.382758
309.152863	8.492594
309.321106	8.601711
309.489380	8.711368
309.657623	8.820954
309.825867	8.930512
309.994080	9.040006
310.162323	9.149537
310.330536	9.258779
310.498749	9.368960
310.666962	9.478915
310.835175	9.589061
311.003357	9.698506
311.171539	9.808016
311.339752	9.917135
311.507904	10.026305
311.676086	10.135564
311.844238	10.245106
312.012421	10.354698
312.180573	10.463292
312.348724	10.571742
312.516846	10.678921
312.684998	10.785971
312.853119	10.891623
313.021240	10.996446
313.189362	11.101009
313.357452	11.204772
313.525574	11.308301
313.693665	11.410974
313.861755	11.512749
314.029846	11.613044
314.197937	11.713719
314.365997	11.814412
314.534058	11.914462
314.702118	12.013435
314.870178	12.112574
315.038239	12.211119
315.206268	12.309162
315.374298	12.407361
315.542328	12.505891
315.710358	12.604177
315.878357	12.702598
316.046387	12.801232
316.214386	12.898699
316.382385	12.997332
316.550385	13.096117
316.718353	13.195085
316.886353	13.293204
317.054321	13.391646
317.222290	13.489265
317.390259	13.587126
317.558197	13.683586
317.726135	13.778129
317.894104	13.872002
318.062012	13.965856
318.229950	14.058485
318.397888	14.151256
318.565796	14.242267
318.733704	14.331772
318.901611	14.420813
319.069519	14.508573
319.237396	14.595676
319.405304	14.681945
319.573181	14.768404
319.741058	14.853469
319.908905	14.937501
320.076782	15.020791
320.244629	15.103155
320.412476	15.184861
320.580322	15.266455
320.748169	15.348191
320.915985	15.429134
321.083801	15.510146
321.251617	15.590240
321.419434	15.670472
321.587250	15.749998
321.755035	15.829594
321.922821	15.909170
322.090607	15.988173
322.258392	16.066555
322.426178	16.145516
322.593933	16.223805
322.761719	16.301413
322.929474	16.378868
323.097198	16.454778
323.264954	16.529090
323.432678	16.602151
323.600403	16.675329
323.768127	16.747108
323.935852	16.817985
324.103577	16.886826
324.271271	16.955374
324.438965	17.024480
324.606659	17.093112
324.774353	17.160278
324.942047	17.227047
325.109711	17.291412
325.277374	17.355950
325.445038	17.421314
325.612701	17.485739
325.780334	17.549018
325.947968	17.612590
326.115631	17.674877
326.283234	17.735771
326.450867	17.797754
326.618500	17.859722
326.786102	17.921661
326.953705	17.983448
327.121307	18.045903
327.288879	18.108195
327.456482	18.172240
327.624054	18.235937
327.791626	18.298688
327.959198	18.361673
328.126770	18.425020
328.294312	18.487810
328.461853	18.551416
328.629395	18.615285
328.796936	18.679336
328.964478	18.743339
329.131989	18.806977
329.299500	18.869195
329.467010	18.932082
329.634521	18.995232
329.802002	19.058019
329.969513	19.121372
330.136993	19.184303
330.304474	19.247006
330.471954	19.308784
330.639404	19.369968
330.806854	19.430278
330.974335	19.490861
331.141754	19.551032
331.309204	19.610641
331.476654	19.669860
331.644073	19.729981
331.811493	19.789615
331.978912	19.847789
332.146332	19.902932
332.313721	19.956569
332.481110	20.009889
332.648499	20.062817
332.815887	20.115031
332.983276	20.166200
333.150635	20.216098
333.317993	20.265635
333.485352	20.314841
333.652710	20.362552
333.820068	20.408858
333.987396	20.454942
334.154724	20.498343
334.322052	20.541262
334.489380	20.583588
334.656708	20.625347
334.824005	20.665886
334.991302	20.705626
335.158600	20.744363
335.325897	20.782909
335.493164	20.821190
335.660431	20.859347
335.827728	20.896996
335.994965	20.935551
336.162231	20.973382
336.329498	21.011643
336.496735	21.050008
336.663971	21.087617
336.831207	21.126135
336.998413	21.164593
337.165649	21.204318
337.332855	21.244603
337.500061	21.286888
337.667267	21.328407
337.834442	21.369950
338.001648	21.411680
338.168823	21.453969
338.335999	21.495027
338.503174	21.536605
338.670319	21.577674
338.837494	21.619773
339.004639	21.662873
339.171783	21.706266
339.338898	21.748911
339.506042	21.791829
339.673157	21.835928
339.840271	21.879725
340.007385	21.922907
340.174500	21.964765
340.341583	22.007459
340.508667	22.049947
340.675751	22.090729
340.842834	22.130464
341.009918	22.169286
341.176971	22.207310
341.344055	22.243860
341.511108	22.280150
341.678131	22.316371
341.845184	22.351966
342.012207	22.387179
342.179230	22.421583
342.346252	22.455023
342.513275	22.488391
342.680298	22.520018
342.847290	22.551579
343.014282	22.581590
343.181274	22.611010
343.348267	22.640229
343.515228	22.668863
343.682190	22.696506
343.849152	22.723436
344.016113	22.750775
344.183075	22.777454
344.350006	22.804622
344.516968	22.832072
344.683899	22.860117
344.850800	22.887586
345.017731	22.915388
345.184631	22.942219
345.351532	22.969210
345.518433	22.996705
345.685333	23.024288
345.852234	23.051383
346.019104	23.079370
346.185974	23.107163
346.352844	23.133605
346.519714	23.160212
346.686554	23.186648
346.853424	23.212870
347.020264	23.238418
347.187073	23.263477
347.353912	23.287689
347.520721	23.312037
347.687561	23.336219
347.854370	23.359801
348.021179	23.383289
348.187958	23.405709
348.354736	23.427548
348.521545	23.450011
348.688324	23.471971
348.855072	23.494323
349.021851	23.516618
349.188599	23.537943
349.355347	23.559830
349.522095	23.581382
349.688843	23.602954
349.855560	23.624516
350.022308	23.646444
350.189026	23.668699
350.355743	23.691788
350.522430	23.715012
350.689148	23.738042
350.855835	23.761374
351.022522	23.784580
351.189209	23.807564
351.355865	23.830142
351.522522	23.853649
351.689209	23.877343
351.855865	23.901692
352.022491	23.926636
352.189148	23.950885
352.355774	23.974747
352.522400	23.999283
352.689026	24.022828
352.855652	24.046697
353.022247	24.071521
353.188843	24.096191
353.355438	24.120209
353.522034	24.144525
353.688629	24.168093
353.855194	24.191786
354.021759	24.216340
354.188324	24.240281
354.354889	24.263575
354.521454	24.287333
354.687988	24.311112
354.854523	24.335251
355.021057	24.358950
355.187592	24.382130
355.354095	24.404869
355.520599	24.426901
355.687134	24.448308
355.853607	24.469441
356.020111	24.490768
356.186584	24.511178
356.353088	24.531319
356.519562	24.551479
356.686005	24.571207
356.852478	24.590168
357.018921	24.608326
357.185364	24.625580
357.351807	24.642220
357.518250	24.658336
357.684692	24.675239
357.851105	24.691745
358.017517	24.708185
358.183929	24.724046
358.350311	24.740058
358.516724	24.755262
358.683105	24.769651
358.849487	24.784502
359.015869	24.799337
359.182220	24.813819
359.348602	24.828853
359.514954	24.844000
359.681305	24.859636
359.847656	24.874869
360.013977	24.891327
360.180298	24.907355
360.346649	24.924610
360.512939	24.941209
360.679260	24.958046
360.845581	24.975410
361.011871	24.992572
361.178162	25.009670
361.344452	25.027084
361.510712	25.044589
361.677002	25.063013
361.843262	25.081275
362.009521	25.099599
362.175751	25.117357
362.342010	25.135818
362.508240	25.154794
362.674469	25.172551
362.840698	25.190073
363.006927	25.206933
363.173126	25.223324
363.339325	25.239485
363.505524	25.255773
363.671722	25.271387
363.837921	25.288241
364.004089	25.304917
364.170258	25.321416
364.336426	25.336831
364.502594	25.352223
364.668762	25.366788
364.834900	25.380807
365.001038	25.392656
365.167175	25.405141
365.333282	25.418422
365.499420	25.431510
365.665527	25.444407
365.831635	25.456479
365.997742	25.468821
366.163818	25.481982
366.329926	25.494986
366.496002	25.507778
366.662079	25.519343
366.828156	25.530975
366.994202	25.542244
367.160248	25.553523
367.326294	25.564171
367.492340	25.574923
367.658386	25.586673
367.824402	25.598262
367.990448	25.609803
368.156464	25.621342
368.322449	25.633233
368.488464	25.644801
368.654449	25.656741
368.820435	25.669623
368.986420	25.682614
369.152405	25.695984
369.318390	25.710257
369.484344	25.723814
369.650299	25.738089
369.816254	25.752876
369.982178	25.767931
370.148132	25.783367
370.314056	25.799331
370.479980	25.815010
370.645905	25.831442
370.811798	25.848128
370.977692	25.864401
371.143616	25.880725
371.309479	25.896965
371.475372	25.913575
371.641266	25.931913
371.807129	25.950149
371.972992	25.967130
372.138855	25.982959
372.304688	25.999276
372.470551	26.015695
372.636383	26.031442
372.802216	26.046866
372.968018	26.060219
373.133850	26.073277
373.299652	26.086430
373.465454	26.098606
373.631256	26.110578
373.797058	26.122562
373.962830	26.133599
374.128601	26.144460
374.294373	26.155319
374.460144	26.166260
374.625916	26.178448
374.791656	26.190409
374.957397	26.201721
375.123138	26.213402
375.288879	26.225157
375.454590	26.237388
375.620331	26.248665
375.786041	26.259906
375.951721	26.270539
376.117432	26.281687
376.283112	26.293465
376.448822	26.305737
376.614471	26.318137
376.780151	26.330324
376.945831	26.342272
377.111481	26.353657
377.277130	26.365381
377.442780	26.376503
377.608429	26.387006
377.774048	26.396570
377.939667	26.405171
378.105286	26.413593
378.270905	26.420416
378.436523	26.426329
378.602112	26.432321
378.767700	26.438101
378.933289	26.442381
379.098877	26.446511
379.264435	26.450961
379.429993	26.454032
379.595551	26.458289
379.761108	26.462345
379.926666	26.466297
380.092194	26.471359
380.257721	26.476994
380.423248	26.482960
380.588776	26.490168
380.754272	26.498297
380.919800	26.506853
381.085297	26.516925
381.250793	26.526466
381.416260	26.536581
381.581757	26.548434
381.747223	26.561213
381.912689	26.575299
382.078125	26.589804
382.243591	26.605809
382.409027	26.621584
382.574463	26.637511
382.739899	26.655165
382.905334	26.672163
383.070740	26.688358
383.236176	26.704925
383.401581	26.721644
383.566956	26.738399
383.732361	26.755409
383.897736	26.771993
384.063110	26.787266
384.228485	26.802082
384.393860	26.816666
384.559204	26.831415
384.724579	26.845772
384.889923	26.861086
385.055237	26.875745
385.220581	26.889850
385.385895	26.903171
385.551239	26.916693
385.716522	26.930291
385.881836	26.943802
386.047150	26.957074
386.212433	26.970236
386.377716	26.983485
386.542999	26.996566
386.708252	27.009307
386.873535	27.021051
387.038788	27.032139
387.204041	27.043363
387.369293	27.055602
387.534515	27.068698
387.699738	27.080447
387.864960	27.092824
388.030182	27.104136
388.195404	27.113083
388.360596	27.120729
388.525787	27.126413
388.690979	27.131214
388.856171	27.135460
389.021362	27.139515
389.186523	27.143573
389.351685	27.146099
389.516846	27.148530
389.682007	27.152533
389.847137	27.155375
390.012268	27.158237
390.177399	27.161214
390.342529	27.164649
390.507629	27.166227
390.672760	27.167544
390.837860	27.168970
391.002960	27.170889
391.168030	27.173758
391.333130	27.177281
391.498199	27.180773
391.663269	27.185755
391.828339	27.192172
391.993378	27.200373
392.158447	27.208908
392.323486	27.217628
392.488525	27.226361
392.653534	27.236964
392.818573	27.247514
392.983582	27.258046
393.148590	27.269656
393.313599	27.281035
393.478577	27.292921
393.643585	27.305385
393.808563	27.318551
393.973541	27.330869
394.138489	27.342070
394.303467	27.353622
394.468414	27.363531
394.633362	27.373099
394.798309	27.382867
394.963226	27.393354
395.128174	27.403357
395.293091	27.413561
395.458008	27.423682
395.622894	27.433278
395.787811	27.442532
395.952698	27.451057
396.117584	27.459860
396.282471	27.466940
396.447327	27.473959
396.612213	27.480297
396.777069	27.486914
396.941925	27.492728
397.106750	27.499286
397.271606	27.507051
397.436432	27.515340
397.601257	27.523584
397.766083	27.532183
397.930878	27.541493
398.095703	27.551813
398.260498	27.561867
398.425293	27.571341
398.590057	27.580078
398.754852	27.588962
398.919617	27.598598
399.084381	27.608375
399.249146	27.617254
399.413879	27.626607
399.578644	27.635720
399.743378	27.644525
399.908112	27.653659
400.072815	27.662808
400.237549	27.671964
400.402252	27.681097
400.566956	27.689152
400.731659	27.697125
400.896332	27.705453
401.061035	27.713589
401.225708	27.721322
401.390381	27.728263
401.555023	27.734295
401.719696	27.741022
401.884338	27.747445
402.048981	27.753164
402.213623	27.759458
402.378235	27.765430
402.542847	27.772593
402.707489	27.779366
402.872070	27.786605
403.036682	27.794363
403.201294	27.803220
403.365875	27.812089
403.530457	27.821591
403.695007	27.830959
403.859589	27.840465
404.024139	27.851028
404.188690	27.861757
404.353241	27.872696
404.517792	27.884974
404.682312	27.896848
404.846832	27.908923
405.011353	27.921610
405.175873	27.934764
405.340393	27.947461
405.504883	27.958983
405.669373	27.970492
405.833862	27.981386
405.998322	27.990714
406.162811	28.000251
406.327271	28.008441
406.491730	28.016218
406.656189	28.022713
406.820618	28.028303
406.985046	28.032780
407.149475	28.037796
407.313904	28.042501
407.478333	28.045471
407.642731	28.047915
407.807129	28.048796
407.971527	28.050470
408.135925	28.051179
408.300293	28.051500
408.464661	28.051622
408.629028	28.052506
408.793396	28.053724
408.957764	28.055337
409.122101	28.057026
409.286438	28.060627
409.450775	28.064826
409.615112	28.070756
409.779419	28.077017
409.943726	28.084591
410.108032	28.091910
410.272339	28.100140
410.436646	28.108752
410.600922	28.116744
410.765198	28.126167
410.929474	28.136637
411.093750	28.147385
411.257996	28.157862
411.422241	28.169618
411.586487	28.180826
411.750732	28.191731
411.914948	28.202413
412.079193	28.211978
412.243408	28.221378
412.407623	28.231470
412.571808	28.240344
412.735992	28.249150
412.900208	28.257894
413.064392	28.266002
413.228546	28.274103
413.392731	28.283227
413.556885	28.292845
413.721039	28.302185
413.885193	28.311350
414.049316	28.319994
414.213470	28.327913
414.377594	28.336788
414.541718	28.345783
414.705811	28.354898
414.869934	28.364755
415.034027	28.374600
415.198120	28.385294
415.362213	28.397152
415.526276	28.409334
415.690338	28.421501
415.854431	28.433352
416.018463	28.446071
416.182526	28.457613
416.346558	28.468120
416.510620	28.477724
416.674622	28.487539
416.838654	28.496486
417.002686	28.504813
417.166687	28.513881
417.330688	28.522660
417.494690	28.531344
417.658661	28.538571
417.822662	28.546152
417.986633	28.553014
418.150604	28.559310
418.314545	28.565277
418.478516	28.571798
418.642456	28.578514
418.806396	28.585566
418.970337	28.591458
419.134247	28.599038
419.298187	28.605922
419.462097	28.613582
419.625977	28.621708
419.789886	28.630124
419.953766	28.638462
420.117676	28.646966
420.281555	28.655917
420.445404	28.664112
420.609283	28.672613
420.773132	28.681670
420.936981	28.691320
421.100830	28.700732
421.264648	28.711445
421.428497	28.722528
421.592316	28.733924
421.756134	28.744570
421.919922	28.753690
422.083740	28.762876
422.247528	28.771990
422.411316	28.780412
422.575104	28.787269
422.738861	28.793878
422.902618	28.801349
423.066406	28.808661
423.230133	28.815618
423.393890	28.823820
423.557617	28.832147
423.721344	28.839780
423.885071	28.848476
424.048798	28.856999
424.212524	28.866475
424.376221	28.875783
424.539917	28.883758
424.703583	28.892033
424.867279	28.900445
425.030945	28.908217
425.194611	28.917591
425.358276	28.926274
425.521942	28.935638
425.685577	28.945827
425.849213	28.956314
426.012848	28.966500
426.176483	28.976499
426.340118	28.986869
426.503723	28.997291
426.667328	29.006436
426.830933	29.014847
426.994507	29.024885
427.158112	29.035629
427.321686	29.046990
427.485229	29.057416
427.648804	29.067393
427.812378	29.076653
427.975922	29.084771
428.139465	29.092227
428.302979	29.099334
428.466522	29.106429
428.630035	29.113356
428.793549	29.120147
428.957062	29.126654
429.120575	29.133567
429.284058	29.140712
429.447540	29.147155
429.611023	29.154672
429.774506	29.162131
429.937958	29.168634
430.101410	29.176150
430.264862	29.184639
430.428314	29.190769
430.591736	29.197091
430.755188	29.203679
430.918610	29.210726
431.082031	29.219861
431.245422	29.231608
431.408813	29.245586
431.572235	29.260715
431.735596	29.276212
431.898987	29.292942
432.062378	29.310194
432.225739	29.326028
432.389099	29.343801
432.552429	29.362202
432.715790	29.381484
432.879120	29.400408
433.042450	29.418576
433.205780	29.437856
433.369110	29.457474
433.532410	29.474647
433.695709	29.492335
433.859009	29.508549
434.022308	29.523694
434.185577	29.539933
434.348846	29.555050
434.512115	29.568153
434.675385	29.579275
434.838654	29.589999
435.001892	29.599807
435.165131	29.608986
435.328369	29.617147
435.491577	29.625445
435.654816	29.632568
435.818024	29.638813
435.981232	29.645316
436.144409	29.649779
436.307617	29.653922
436.470795	29.658270
436.633972	29.661214
436.797119	29.664210
436.960297	29.668113
437.123444	29.671840
437.286591	29.676030
437.449738	29.679841
437.612885	29.684442
437.776001	29.688883
437.939117	29.693385
438.102234	29.697455
438.265350	29.700829
438.428436	29.703551
438.591522	29.707117
438.754608	29.712480
438.917694	29.716820
439.080750	29.720737
439.243835	29.723479
439.406891	29.727568
439.569916	29.732912
439.732971	29.738000
439.895996	29.743149
440.059021	29.750285
440.222046	29.757238
440.385071	29.764984
440.548065	29.774215
440.711060	29.781994
440.874054	29.789447
441.037048	29.796836
441.200012	29.805736
441.363007	29.816049
441.525970	29.828431
441.688904	29.840030
441.851868	29.851501
442.014801	29.862296
442.177734	29.873344
442.340668	29.884798
442.503601	29.895896
442.666504	29.906549
442.829407	29.916579
442.992310	29.926559
443.155212	29.936198
443.318085	29.944360
443.480957	29.952259
443.643829	29.960748
443.806702	29.969040
443.969543	29.978043
444.132416	29.987557
444.295258	29.996657
444.458069	30.004505
444.620911	30.011586
444.783722	30.018637
444.946533	30.027552
445.109344	30.036794
445.272156	30.045997
445.434937	30.056241
445.597717	30.067979
445.760498	30.081639
445.923279	30.095824
446.086060	30.110276
446.248810	30.125213
446.411560	30.142083
446.574280	30.159330
446.737030	30.175553
446.899750	30.191178
447.062469	30.205938
447.225189	30.221129
447.387909	30.235655
447.550598	30.250894
447.713287	30.267230
447.875977	30.283313
448.038666	30.297311
448.201324	30.310999
448.363983	30.324870
448.526642	30.337173
448.689301	30.348020
448.851929	30.356339
449.014587	30.363380
449.177216	30.369878
449.339813	30.375850
449.502441	30.380427
449.665039	30.384723
449.827637	30.388905
449.990234	30.393371
450.152832	30.397759
450.315399	30.400290
450.477966	30.403026
450.640533	30.404772
450.803101	30.406667
450.965637	30.407584
451.128174	30.409772
451.290710	30.413521
451.453247	30.417225
451.615784	30.420235
451.778290	30.424384
451.940796	30.429594
452.103302	30.435758
452.265778	30.442046
452.428253	30.448841
452.590729	30.457252
452.753204	30.467091
452.915680	30.475845
453.078125	30.485705
453.240570	30.496636
453.403015	30.509186
453.565460	30.523466
453.727875	30.536417
453.890289	30.549894
454.052704	30.563652
454.215118	30.576766
454.377533	30.588304
454.539917	30.599074
454.702301	30.608607
454.864685	30.617422
455.027039	30.626976
455.189392	30.636252
455.351746	30.645531
455.514099	30.654829
455.676453	30.664140
455.838776	30.671959
456.001099	30.679697
456.163422	30.687145
456.325745	30.693558
456.488037	30.698393
456.650330	30.701379
456.812622	30.704628
456.974915	30.708318
457.137177	30.712019
457.299469	30.715688
457.461731	30.720462
457.623962	30.724800
457.786224	30.728822
457.948456	30.733728
458.110687	30.738865
458.272919	30.743632
458.435150	30.748403
458.597351	30.754692
458.759552	30.762724
458.921753	30.771179
459.083923	30.780377
459.246124	30.788929
459.408295	30.798115
459.570465	30.806210
459.732635	30.815131
459.894775	30.823907
460.056915	30.831986
460.219055	30.840116
460.381195	30.847632
460.543304	30.854964
460.705444	30.862189
460.867554	30.869113
461.029633	30.877041
461.191742	30.886359
461.353821	30.896853
461.515900	30.906891
461.677979	30.916231
461.840057	30.925802
462.002106	30.934084
462.164154	30.941248
462.326202	30.949190
462.488251	30.956659
462.650269	30.964096
462.812286	30.971110
462.974304	30.979070
463.136322	30.987166
463.298309	30.995730
463.460297	31.004276
463.622284	31.014049
463.784271	31.022917
463.946259	31.030518
464.108215	31.039693
464.270172	31.047774
464.432129	31.053312
464.594055	31.060143
464.755981	31.067690
464.917908	31.076372
465.079834	31.083486
465.241760	31.089193
465.403656	31.095853
465.565552	31.100388
465.727448	31.105528
465.889343	31.110743
466.051208	31.116718
466.213074	31.123122
466.374939	31.128906
466.536804	31.133937
466.698639	31.139602
466.860504	31.144775
467.022308	31.150407
467.184143	31.156824
467.345978	31.163617
467.507782	31.170607
467.669586	31.178329
467.831390	31.183634
467.993164	31.187592
468.154938	31.191891
468.316711	31.195606
468.478485	31.199640
468.640259	31.203580
468.802002	31.208277
468.963745	31.213132
469.125488	31.216759
469.287231	31.221359
469.448944	31.224278
469.610657	31.227362
469.772369	31.231320
469.934082	31.233543
470.095764	31.236878
470.257446	31.241135
470.419128	31.247379
470.580811	31.253640
470.742462	31.261546
470.904144	31.271242
471.065796	31.282214
471.227417	31.293674
471.389069	31.305046
471.550690	31.316749
471.712311	31.330160
471.873932	31.343149
472.035522	31.357174
472.197144	31.371358
472.358734	31.387382
472.520294	31.403939
472.681885	31.420238
472.843445	31.436646
473.005005	31.452689
473.166565	31.467993
473.328125	31.481934
473.489655	31.494548
473.651184	31.503548
473.812714	31.511743
473.974243	31.517716
474.135742	31.522840
474.297241	31.528268
474.458740	31.534945
474.620239	31.540703
474.781738	31.547106
474.943207	31.552630
475.104675	31.557203
475.266113	31.559536
475.427582	31.560426
475.589020	31.560622
475.750458	31.559083
475.911896	31.558285
476.073303	31.558570
476.234741	31.558858
476.396149	31.563112
476.557526	31.566938
476.718933	31.571751
476.880310	31.578396
477.041687	31.583444
477.203064	31.589520
477.364441	31.595354
477.525787	31.599101
477.687134	31.601751
477.848480	31.604846
478.009827	31.608453
478.171143	31.611969
478.332458	31.616377
478.493774	31.622282
478.655090	31.629442
478.816376	31.636199
478.977661	31.643413
479.138947	31.650968
479.300232	31.657437
479.461487	31.663453
479.622772	31.668710
479.784027	31.674363
479.945251	31.679035
480.106506	31.685197
480.267731	31.693077
480.428955	31.702777
480.590179	31.711738
480.751373	31.721369
480.912567	31.731146
481.073761	31.739703
481.234955	31.746522
481.396149	31.752931
481.557312	31.759850
481.718475	31.766146
481.879639	31.771738
482.040802	31.776783
482.201935	31.782923
482.363068	31.788123
482.524200	31.792502
482.685303	31.797364
482.846436	31.799860
483.007538	31.803533
483.168640	31.807570
483.329712	31.810087
483.490814	31.814133
483.651886	31.817264
483.812958	31.820750
483.973999	31.825295
484.135071	31.830402
484.296112	31.836074
484.457153	31.842688
484.618195	31.849835
484.779205	31.857409
484.940216	31.865261
485.101227	31.874112
485.262238	31.884269
485.423218	31.894261
485.584229	31.903462
485.745209	31.912860
485.906158	31.921985
486.067139	31.931655
486.228088	31.941307
486.389038	31.951282
486.549988	31.961594
486.710907	31.970167
486.871857	31.976428
487.032776	31.983171
487.193665	31.988887
487.354584	31.993361
487.515472	31.997576
487.676361	32.001724
487.837250	32.005380
487.998138	32.007337
488.158997	32.009979
488.319855	32.012898
488.480713	32.016662
488.641541	32.019280
488.802399	32.023047
488.963226	32.028919
489.124054	32.036337
489.284851	32.044786
489.445679	32.051836
489.606476	32.059489
489.767273	32.067580
489.928040	32.074615
490.088837	32.082908
490.249603	32.090456
490.410370	32.097830
490.571106	32.105313
490.731873	32.113307
490.892609	32.121285
491.053345	32.130950
491.214081	32.140930
491.374786	32.150875
491.535492	32.160281
491.696198	32.168218
491.856903	32.176165
492.017578	32.184743
492.178284	32.193363
492.338959	32.200521
492.499603	32.206414
492.660278	32.211830
492.820923	32.216063
492.981567	32.218534
493.142212	32.221359
493.302826	32.223801
493.463440	32.225893
493.624054	32.227974
493.784668	32.229671
493.945282	32.231938
494.105865	32.235305
494.266449	32.237654
494.427032	32.241824
494.587585	32.246041
494.748169	32.250454
494.908722	32.254896
495.069244	32.260625
495.229797	32.267110
495.390320	32.272230
495.550842	32.277017
495.711365	32.281457
495.871887	32.288485
496.032379	32.295360
496.192871	32.303422
496.353363	32.313648
496.513855	32.323485
496.674316	32.335084
496.834778	32.346817
496.995239	32.360494
497.155670	32.375120
497.316132	32.389193
497.476562	32.402558
497.636993	32.414856
497.797394	32.426213
497.957825	32.437317
498.118225	32.449661
498.278625	32.460477
498.438995	32.469462
498.599396	32.477162
498.759766	32.484378
498.920135	32.491551
499.080475	32.497440
499.240845	32.503050
499.401184	32.508940
499.561523	32.512697
499.721832	32.517479
499.882172	32.522264
500.042480	32.528379
500.202789	32.534791
500.363098	32.540744
500.523376	32.546051
500.683655	32.552090
500.843933	32.557038
501.004211	32.561696
501.164459	32.567115
501.324707	32.571105
501.484955	32.575301
501.645203	32.579945
501.805420	32.585626
501.965668	32.591138
502.125885	32.598684
502.286072	32.604650
502.446289	32.612051
502.606476	32.617738
502.766663	32.623255
502.926849	32.628950
503.087006	32.632716
503.247162	32.636219
503.407318	32.637410
503.567474	32.637405
503.727600	32.637128
503.887756	32.634932
504.047882	32.633693
504.207977	32.633200
504.368103	32.630618
504.528198	32.627298
504.688293	32.623430
504.848389	32.618553
505.008453	32.613927
505.168549	32.611210
505.328613	32.608391
505.488647	32.607177
505.648712	32.606776
505.808746	32.608387
505.968781	32.611176
506.128815	32.615182
506.288818	32.619873
506.448853	32.623268
506.608856	32.628703
506.768829	32.634207
506.928833	32.640499
507.088806	32.649257
507.248779	32.659386
507.408752	32.670224
507.568695	32.682791
507.728668	32.697312
507.888611	32.712765
508.048523	32.729232
508.208466	32.746028
508.368378	32.761722
508.528290	32.777240
508.688202	32.792948
508.848114	32.807290
509.007996	32.821845
509.167877	32.835338
509.327759	32.845794
509.487610	32.856502
509.647461	32.866769
509.807312	32.876018
509.967163	32.883784
510.127014	32.891023
510.286835	32.896943
510.446655	32.899792
510.606476	32.900533
510.766266	32.900633
510.926086	32.898839
511.085876	32.897352
511.245667	32.895560
511.405426	32.894275
511.565186	32.892965
511.724945	32.892932
511.884705	32.892083
512.044434	32.891081
512.204163	32.888323
512.363953	32.886904
512.523621	32.885646
512.683350	32.884316
512.843079	32.886294
513.002747	32.887216
513.162476	32.891037
513.322144	32.894756
513.481812	32.898881
513.641479	32.905387
513.801147	32.914803
513.960815	32.922889
514.120422	32.932302
514.280090	32.941780
514.439697	32.952215
514.599365	32.961905
514.758972	32.973993
514.918579	32.983952
515.078186	32.993089
515.237732	33.002552
515.397339	33.011690
515.556946	33.020473
515.716492	33.031684
515.876038	33.041306
516.035583	33.048038
516.195129	33.054971
516.354675	33.060704
516.514221	33.066129
516.673767	33.071708
516.833252	33.074632
516.992798	33.076287
517.152283	33.080595
517.311768	33.084748
517.471252	33.089544
517.630737	33.095093
517.790222	33.099100
517.949646	33.102442
518.109131	33.105140
518.268555	33.108253
518.427979	33.110261
518.587463	33.114824
518.746887	33.119537
518.906250	33.123572
519.065674	33.129082
519.225098	33.134093
519.384460	33.140676
519.543884	33.146472
519.703247	33.153327
519.862610	33.160106
520.021973	33.168844
520.181335	33.177120
520.340698	33.186490
520.500000	33.195610
520.659363	33.204290
520.818665	33.210506
520.977966	33.219618
521.137329	33.227337
521.296631	33.236385
521.455872	33.247623
521.615173	33.258927
521.774475	33.269271
521.933716	33.280179
522.093018	33.290406
522.252258	33.300845
522.411499	33.313248
522.570740	33.325947
522.729980	33.339206
522.889221	33.351420
523.048401	33.361948
523.207642	33.374204
523.366821	33.385562
523.526001	33.394905
523.685181	33.403841
523.844360	33.411815
524.003540	33.420821
524.162720	33.429494
524.321838	33.436949
524.481018	33.444105
524.640137	33.449526
524.799316	33.458003
524.958435	33.465177
525.117554	33.470042
525.276611	33.475725
525.435730	33.482455
525.594849	33.487650
525.753906	33.491568
525.912964	33.496091
526.072083	33.502245
526.231140	33.510532
526.390198	33.515470
526.549255	33.520313
526.708252	33.525802
526.867310	33.531054
527.026306	33.537862
527.185364	33.545638
527.344360	33.552176
527.503357	33.560612
527.662354	33.568459
527.821350	33.575942
527.980286	33.580752
528.139282	33.586437
528.298218	33.592242
528.457214	33.595629
528.616150	33.597351
528.775085	33.597449
528.934021	33.595796
529.092896	33.592052
529.251831	33.586168
529.410767	33.578405
529.569641	33.569525
529.728516	33.560720
529.887451	33.549837
530.046326	33.539344
530.205200	33.525982
530.364014	33.508977
530.522888	33.492148
530.681702	33.475723
530.840576	33.458384
530.999390	33.442411
531.158203	33.427270
531.317017	33.414084
531.475830	33.404707
531.634644	33.396801
531.793457	33.388027
531.952209	33.383927
532.110962	33.382577
532.269775	33.383513
532.428528	33.385765
532.587280	33.390621
532.746033	33.401692
532.904724	33.415780
533.063477	33.429716
533.222229	33.445120
533.380920	33.462730
533.539612	33.483839
533.698303	33.503557
533.856995	33.521436
534.015686	33.542324
534.174377	33.562375
534.333008	33.583375
534.491699	33.602958
534.650330	33.619619
534.808960	33.638040
534.967651	33.658218
535.126221	33.676140
535.284851	33.693427
535.443481	33.709960
535.602112	33.723704
535.760681	33.736865
535.919250	33.746382
536.077881	33.754742
536.236450	33.764438
536.395020	33.773078
536.553528	33.783571
536.712097	33.795021
536.870667	33.809618
537.029175	33.826388
537.187683	33.843689
537.346191	33.864336
537.504700	33.884097
537.663208	33.902851
537.821716	33.922879
537.980225	33.939802
538.138672	33.958306
538.297180	33.976558
538.455627	33.994553
538.614075	34.013442
538.772522	34.034250
538.930969	34.052344
539.089417	34.068792
539.247803	34.083078
539.406250	34.096693
539.564636	34.108895
539.723083	34.116733
539.881470	34.120693
540.039856	34.123809
540.198242	34.124710
540.356567	34.121943
540.514954	34.117130
540.673279	34.111874
540.831665	34.106294
540.989990	34.098751
541.148315	34.090936
541.306641	34.079649
541.464966	34.067948
541.623291	34.057140
541.781555	34.045371
541.939880	34.036415
542.098145	34.027160
542.256409	34.018548
542.414673	34.013299
542.572937	34.010314
542.731201	34.008894
542.889465	34.010028
543.047668	34.015217
543.205933	34.019612
543.364136	34.022658
543.522339	34.026602
543.680542	34.029507
543.838745	34.032660
543.996948	34.037523
544.155090	34.039819
544.313293	34.046871
544.471436	34.053789
544.629639	34.059682
544.787781	34.064108
544.945923	34.066424
545.104065	34.067431
545.262146	34.071860
545.420288	34.075215
545.578369	34.076128
545.736511	34.073619
545.894592	34.068763
546.052673	34.063647
546.210754	34.058513
546.368835	34.054413
546.526917	34.052785
546.684937	34.053519
546.843018	34.052680
547.001038	34.051208
547.159058	34.048060
547.317078	34.049577
547.475098	34.049553
547.633118	34.051284
547.791138	34.056678
547.949097	34.063739
548.107117	34.072644
548.265076	34.081743
548.423035	34.090729
548.580994	34.105591
548.738953	34.122121
548.896912	34.143538
549.054810	34.166630
549.212769	34.188090
549.370667	34.206390
549.528625	34.221910
549.686523	34.238519
549.844421	34.255385
550.002319	34.271821
550.160156	34.289421
550.318054	34.303932
550.475891	34.318153
550.633789	34.327190
550.791626	34.338125
550.949463	34.347702
551.107300	34.358739
551.265137	34.371017
551.422974	34.382209
551.580750	34.391318
551.738586	34.399678
551.896362	34.405768
552.054138	34.411919
552.211914	34.421093
552.369690	34.432338
552.527466	34.441996
552.685242	34.455713
552.842957	34.470613
553.000671	34.481656
553.158447	34.494931
553.316162	34.505816
553.473877	34.522864
553.631592	34.537857
553.789307	34.556407
553.946960	34.573381
554.104675	34.588638
554.262329	34.600026
554.419983	34.610597
554.577637	34.619951
554.735291	34.632767
554.892944	34.644046
555.050598	34.651199
555.208252	34.653133
555.365845	34.649267
555.523438	34.644642
555.681030	34.639991
555.838684	34.630339
555.996216	34.618058
556.153809	34.605990
556.311401	34.592624
556.468994	34.579341
556.626526	34.564124
556.784058	34.550164
556.941589	34.536497
557.099121	34.522459
557.256653	34.512233
557.414185	34.505083
557.571716	34.501409
557.729187	34.500067
557.886719	34.499817
558.044189	34.497403
558.201660	34.502460
558.359131	34.507268
558.516602	34.514148
558.674011	34.520283
558.831482	34.530724
558.988892	34.541740
559.146362	34.553271
559.303772	34.569917
559.461182	34.589412
559.618591	34.613280
559.776001	34.635910
559.933350	34.666266
560.090759	34.699618
560.248108	34.735421
560.405518	34.769187
560.562866	34.804874
560.720215	34.841472
560.877563	34.881344
561.034851	34.913398
561.192200	34.948336
561.349548	34.984812
561.506836	35.020813
561.664124	35.056534
561.821411	35.091682
561.978699	35.126113
562.135986	35.161682
562.293274	35.197091
562.450500	35.228690
562.607788	35.257034
562.765015	35.281222
562.922241	35.306586
563.079468	35.319443
563.236694	35.333693
563.393921	35.347475
563.551147	35.357840
563.708313	35.362221
563.865540	35.360608
564.022705	35.354424
564.179871	35.345590
564.337036	35.325642
564.494202	35.296094
564.651367	35.266277
564.808472	35.237632
564.965637	35.213948
565.122742	35.186081
565.279846	35.159835
565.436951	35.134694
565.594055	35.108253
565.751160	35.081488
565.908264	35.055226
566.065308	35.029680
566.222412	35.003531
566.379456	34.974029
566.536499	34.943826
566.693542	34.920558
566.850586	34.899398
567.007629	34.879525
567.164673	34.857184
567.321655	34.845410
567.478699	34.837895
567.635681	34.837382
567.792664	34.841542
567.949646	34.849526
568.106628	34.855252
568.263611	34.863366
568.420532	34.876403
568.577515	34.890545
568.734436	34.906653
568.891357	34.925880
569.048279	34.948008
569.205200	34.971614
569.362122	35.007710
569.518982	35.043703
569.675903	35.080931
569.832764	35.115665
569.989685	35.148786
570.146545	35.180613
570.303406	35.209566
570.460266	35.234758
570.617065	35.270007
570.773926	35.307907
570.930786	35.346994
571.087585	35.381650
571.244385	35.412527
571.401184	35.445913
571.557983	35.475593
571.714783	35.503062
571.871582	35.527878
572.028320	35.550101
572.185120	35.571704
572.341858	35.591474
572.498596	35.607726
572.655334	35.621817
572.812073	35.631149
572.968811	35.633959
573.125488	35.641274
573.282227	35.649890
573.438904	35.662023
573.595581	35.674892
573.752258	35.687003
573.908936	35.692955
574.065613	35.693512
574.222290	35.694187
574.378906	35.697148
574.535583	35.698931
574.692200	35.698614
574.848816	35.697352
575.005432	35.698851
575.162048	35.703654
575.318665	35.708113
575.475281	35.713608
575.631836	35.712246
575.788452	35.710450
575.945007	35.709438
576.101562	35.714012
576.258118	35.719034
576.414673	35.725287
576.571167	35.735964
576.727722	35.747083
576.884216	35.753973
577.040771	35.759133
577.197266	35.767701
577.353760	35.778613
577.510254	35.788978
577.666748	35.804758
577.823181	35.822002
577.979675	35.837025
578.136108	35.851935
578.292542	35.866302
578.449036	35.879469
578.605469	35.892901
578.761841	35.908178
578.918274	35.924659
579.074707	35.943654
579.231079	35.965839
579.387451	35.983035
579.543884	35.998061
579.700256	36.011282
579.856628	36.025295
580.012939	36.037920
580.169312	36.056731
580.325684	36.076420
580.481995	36.096043
580.638306	36.117475
580.794617	36.134252
580.950928	36.148169
581.107239	36.165738
581.263550	36.185396
581.419800	36.201481
581.576111	36.215092
581.732361	36.223636
581.888611	36.233817
582.044861	36.244805
582.201111	36.251317
582.357361	36.251369
582.513611	36.251568
582.669800	36.248388
582.826050	36.240030
582.982239	36.228662
583.138428	36.214184
583.294617	36.199659
583.450806	36.183225
583.606995	36.168409
583.763123	36.150272
583.919312	36.129040
584.075439	36.108422
584.231567	36.088897
584.387695	36.067605
584.543823	36.047094
584.699951	36.028018
584.856018	36.012286
585.012146	35.999225
585.168213	35.983878
585.324341	35.971053
585.480408	35.959883
585.636475	35.952181
585.792480	35.952351
585.948547	35.959423
586.104614	35.968510
586.260620	35.981233
586.416626	35.993373
586.572693	36.007794
586.728699	36.022251
586.884705	36.037444
587.040649	36.056407
587.196655	36.078696
587.352600	36.096755
587.508606	36.111031
587.664551	36.126841
587.820496	36.143448
587.976440	36.159965
588.132385	36.173009
588.288330	36.187098
588.444214	36.203558
588.600159	36.217517
588.756042	36.226817
588.911926	36.234255
589.067810	36.242988
589.223694	36.249647
589.379578	36.256753
589.535400	36.263418
589.691284	36.269928
589.847107	36.272787
590.002930	36.281584
590.158752	36.290168
590.314575	36.295584
590.470398	36.302396
590.626221	36.308677
590.781982	36.316731
590.937805	36.326217
591.093567	36.334628
591.249329	36.339267
591.405090	36.345183
591.560852	36.351305
591.716614	36.362648
591.872375	36.377509
592.028076	36.391395
592.183777	36.400642
592.339539	36.412950
592.495239	36.427921
592.650940	36.444217
592.806580	36.458907
592.962280	36.474311
593.117920	36.485847
593.273621	36.493907
593.429260	36.504065
593.584900	36.515213
593.740540	36.531886
593.896179	36.550176
594.051819	36.567888
594.207397	36.587187
594.363037	36.611704
594.518616	36.636695
594.674194	36.659706
594.829773	36.682096
594.985352	36.705285
595.140930	36.727189
595.296509	36.747085
595.452026	36.764629
595.607605	36.781018
595.763123	36.795251
595.918640	36.810434
596.074158	36.824642
596.229675	36.836764
596.385132	36.849732
596.540649	36.862124
596.696106	36.873419
596.851624	36.884581
597.007080	36.889913
597.162537	36.892519
597.317993	36.892326
597.473389	36.891780
597.628845	36.895896
597.784241	36.900447
597.939697	36.901752
598.095093	36.902259
598.250488	36.900384
598.405884	36.904203
598.561279	36.905790
598.716614	36.903591
598.872009	36.900402
599.027344	36.896113
599.182739	36.889122
599.338074	36.881446
599.493408	36.875398
599.648682	36.865822
599.804016	36.861010
599.959351	36.855958
600.114624	36.848324
600.269958	36.843139
600.425232	36.836072
600.580505	36.825950
600.735779	36.807352
600.890991	36.785290
601.046265	36.763850
601.201477	36.741019
601.356750	36.720552
601.511963	36.698274
601.667175	36.679788
601.822388	36.664782
601.977600	36.651144
602.132812	36.636339
602.287964	36.627821
602.443115	36.621875
602.598328	36.617051
602.753479	36.617469
602.908630	36.617211
603.063782	36.619793
603.218872	36.627670
603.374023	36.641392
603.529114	36.663865
603.684265	36.693001
603.839355	36.723524
603.994446	36.755820
604.149536	36.792504
604.304626	36.827852
604.459656	36.863516
604.614746	36.893446
604.769775	36.923061
604.924805	36.952740
605.079834	36.978927
605.234863	37.007717
605.389893	37.035394
605.544922	37.063671
605.699890	37.091742
605.854919	37.118639
606.009888	37.141174
606.164856	37.155103
606.319824	37.164707
606.474792	37.167367
606.629761	37.163749
606.784668	37.155280
606.939636	37.150655
607.094543	37.148456
607.249451	37.143292
607.404358	37.137036
607.559265	37.127203
607.714172	37.122315
607.869080	37.115380
608.023926	37.104922
608.178772	37.095776
608.333679	37.084143
608.488525	37.068375
608.643372	37.052606
608.798218	37.037703
608.953003	37.021800
609.107849	37.008180
609.262634	36.998423
609.417419	36.995722
609.572266	36.993330
609.726990	36.993949
609.881775	36.994864
610.036560	36.995729
610.191345	37.001376
610.346069	37.006927
610.500793	37.018389
610.655579	37.037059
610.810303	37.058574
610.964966	37.078646
611.119690	37.102129
611.274414	37.130722
611.429077	37.160458
611.583801	37.190390
611.738464	37.219932
611.893127	37.245249
612.047791	37.267101
612.202454	37.287808
612.357056	37.313304
612.511719	37.334597
612.666321	37.354045
612.820923	37.375588
612.975586	37.394856
613.130188	37.410209
613.284729	37.419414
613.439331	37.425173
613.593933	37.425888
613.748474	37.428641
613.903015	37.426350
614.057556	37.423267
614.212097	37.418836
614.366638	37.413038
614.521179	37.407531
614.675720	37.405361
614.830200	37.403237
614.984680	37.400766
615.139221	37.402190
615.293701	37.404797
615.448181	37.407613
615.602600	37.412860
615.757080	37.419470
615.911499	37.422642
616.065979	37.429872
616.220398	37.440951
616.374817	37.450769
616.529236	37.462399
616.683655	37.474074
616.838074	37.479901
616.992432	37.486343
617.146851	37.497314
617.301208	37.509178
617.455566	37.516578
617.609924	37.521956
617.764282	37.525843
617.918579	37.529864
618.072937	37.536621
618.227234	37.546177
618.381592	37.557875
618.535889	37.560983
618.690186	37.566567
618.844482	37.577324
618.998718	37.588510
619.153015	37.602874
619.307312	37.617854
619.461548	37.634340
619.615784	37.653539
619.770020	37.675743
619.924255	37.696926
620.078491	37.716050
620.232666	37.736263
620.386902	37.754142
620.541077	37.771053
620.695251	37.790530
620.849487	37.807908
621.003601	37.826311
621.157776	37.845386
621.311951	37.859210
621.466064	37.869458
621.620239	37.882262
621.774353	37.888715
621.928467	37.892334
622.082581	37.894816
622.236694	37.894125
622.390808	37.892070
622.544861	37.890517
622.698975	37.890772
622.853027	37.888345
623.007080	37.885556
623.161133	37.885259
623.315186	37.884600
623.469238	37.884001
623.623230	37.887952
623.777283	37.894186
623.931274	37.904521
624.085266	37.916355
624.239258	37.927491
624.393250	37.941980
624.547241	37.953450
624.701233	37.966677
624.855164	37.983914
625.009094	38.001953
625.163086	38.022017
625.317017	38.041355
625.470947	38.058956
625.624817	38.072358
625.778748	38.080452
625.932617	38.089792
626.086548	38.098253
626.240417	38.108274
626.394287	38.115598
626.548157	38.121753
626.702026	38.126819
626.855896	38.125005
627.009705	38.121481
627.163574	38.113652
627.317383	38.106000
627.471191	38.100625
627.625000	38.099425
627.778809	38.097091
627.932556	38.094735
628.086365	38.091289
628.240112	38.087653
628.393921	38.085305
628.547668	38.081818
628.701416	38.080999
628.855164	38.082168
629.008850	38.087318
629.162598	38.096273
629.316284	38.106466
629.470032	38.120162
629.623718	38.137907
629.777405	38.158006
629.931091	38.184403
630.084778	38.212040
630.238403	38.237847
630.392090	38.263027
630.545715	38.283174
630.699341	38.306421
630.852966	38.335330
631.006592	38.361477
631.160217	38.384019
631.313843	38.403845
631.467407	38.418888
631.620972	38.432036
631.774597	38.445619
631.928162	38.456351
632.081726	38.464381
632.235229	38.470217
632.388794	38.470965
632.542358	38.466629
632.695862	38.461446
632.849365	38.452301
633.002869	38.440629
633.156372	38.429477
633.309875	38.419737
633.463379	38.408786
633.616821	38.396408
633.770325	38.382440
633.923767	38.365105
634.077209	38.346417
634.230652	38.333459
634.384094	38.325018
634.537537	38.317738
634.690918	38.314165
634.844299	38.309580
634.997742	38.305342
635.151123	38.299618
635.304504	38.297447
635.457886	38.299540
635.611206	38.304464
635.764587	38.311657
635.917908	38.319790
636.071289	38.325681
636.224609	38.329425
636.377930	38.336651
636.531250	38.344284
636.684570	38.355000
636.837830	38.363010
636.991150	38.369714
637.144409	38.379612
637.297668	38.389567
637.450928	38.395734
637.604187	38.405302
637.757446	38.412151
637.910645	38.420702
638.063904	38.433955
638.217102	38.445442
638.370300	38.451308
638.523499	38.458510
638.676697	38.463924
638.829895	38.465381
638.983093	38.468414
639.136230	38.475826
639.289429	38.483029
639.442566	38.486832
639.595703	38.490750
639.748840	38.499693
639.901978	38.509736
640.055054	38.519889
640.208191	38.530377
640.361267	38.534817
640.514343	38.536986
640.667419	38.535538
640.820496	38.536584
640.973572	38.539083
641.126648	38.545261
641.279663	38.559506
641.432739	38.577904
641.585754	38.597424
641.738770	38.618326
641.891785	38.639513
642.044800	38.661206
642.197754	38.681240
642.350769	38.704689
642.503723	38.726588
642.656738	38.751897
642.809692	38.775788
642.962646	38.803514
643.115540	38.829848
643.268494	38.855408
643.421448	38.882425
643.574341	38.911670
643.727234	38.939577
643.880127	38.968659
644.033020	38.994393
644.185913	39.012493
644.338806	39.021767
644.491699	39.029783
644.644531	39.030984
644.797363	39.031371
644.950195	39.032657
645.103027	39.029248
645.255859	39.021590
645.408691	39.008704
645.561462	39.000520
645.714294	38.990170
645.867065	38.974808
646.019836	38.955110
646.172607	38.934464
646.325378	38.911286
646.478149	38.890025
646.630859	38.869117
646.783630	38.855523
646.936340	38.841157
647.089050	38.830347
647.241760	38.819690
647.394470	38.809264
647.547180	38.800480
647.699829	38.793714
647.852539	38.787056
648.005188	38.780961
648.157837	38.777753
648.310486	38.779603
648.463135	38.784437
648.615784	38.788899
648.768433	38.793618
648.921021	38.800293
649.073608	38.804985
649.226257	38.810006
649.378845	38.815996
649.531372	38.820242
649.683960	38.823764
649.836548	38.824278
649.989075	38.823819
650.141663	38.822085
650.294189	38.822214
650.446716	38.826405
650.599243	38.830527
650.751709	38.836225
650.904236	38.843849
651.056702	38.851150
651.209229	38.860467
651.361694	38.869609
651.514160	38.878064
651.666626	38.883962
651.819092	38.892610
651.971497	38.898132
652.123962	38.904499
652.276367	38.912418
652.428772	38.924794
652.581177	38.938568
652.733582	38.953030
652.885986	38.964035
653.038330	38.974801
653.190735	38.985570
653.343079	38.996933
653.495422	39.008519
653.647827	39.017704
653.800110	39.024257
653.952454	39.028357
654.104797	39.032181
654.257080	39.035812
654.409424	39.038639
654.561707	39.037733
654.713989	39.036126
654.866272	39.029601
655.018555	39.021528
655.170776	39.014037
655.323059	39.005420
655.475281	38.992647
655.627502	38.979558
655.779724	38.967918
655.931946	38.957195
656.084167	38.948157
656.236328	38.937506
656.388550	38.924399
656.540710	38.911072
656.692871	38.898451
656.845093	38.887876
656.997192	38.878388
657.149353	38.868436
657.301514	38.855020
657.453613	38.840298
657.605774	38.831259
657.757874	38.826149
657.909973	38.822929
658.062073	38.825628
658.214172	38.827654
658.366211	38.834637
658.518311	38.843552
658.670349	38.854232
658.822388	38.865325
658.974426	38.881987
659.126465	38.899066
659.278503	38.919440
659.430481	38.943758
659.582520	38.969366
659.734497	38.997672
659.886475	39.026797
660.038452	39.057500
660.190430	39.088703
660.342407	39.119353
660.494385	39.148214
660.646301	39.173432
660.798279	39.196663
660.950195	39.219101
661.102112	39.241777
661.254028	39.263506
661.405884	39.281217
661.557800	39.296047
661.709717	39.308353
661.861572	39.317151
662.013428	39.321119
662.165283	39.319414
662.317139	39.313836
662.468994	39.303999
662.620789	39.289777
662.772644	39.272103
662.924438	39.253207
663.076233	39.230642
663.228027	39.207118
663.379822	39.186741
663.531616	39.167944
663.683411	39.152921
663.835144	39.138951
663.986877	39.125529
664.138611	39.112432
664.290344	39.107058
664.442078	39.101066
664.593811	39.096597
664.745544	39.094127
664.897217	39.097157
665.048889	39.101747
665.200623	39.113304
665.352295	39.126663
665.503967	39.142363
665.655579	39.159794
665.807251	39.178612
665.958862	39.198357
666.110535	39.221726
666.262146	39.245793
666.413757	39.272756
666.565369	39.300023
666.716919	39.327810
666.868530	39.356005
667.020081	39.385258
667.171692	39.410172
667.323242	39.430030
667.474792	39.451421
667.626343	39.475101
667.777832	39.496380
667.929382	39.514711
668.080872	39.530587
668.232422	39.542633
668.383911	39.553326
668.535400	39.564175
668.686890	39.575441
668.838318	39.585505
668.989807	39.595579
669.141235	39.603780
669.292725	39.612812
669.444153	39.617937
669.595581	39.626018
669.747009	39.630331
669.898376	39.632554
670.049805	39.633917
670.201172	39.633245
670.352539	39.630259
670.503967	39.627667
670.655273	39.624863
670.806641	39.623144
670.958008	39.619686
671.109375	39.616302
671.260681	39.613276
671.411987	39.614351
671.563293	39.616147
671.714600	39.619713
671.865906	39.624577
672.017212	39.631986
672.168457	39.640374
672.319763	39.649833
672.471008	39.657668
672.622253	39.664869
672.773499	39.672262
672.924744	39.680050
673.075928	39.688540
673.227173	39.702652
673.378357	39.718629
673.529541	39.733465
673.680786	39.745150
673.831909	39.756477
673.983093	39.767061
674.134277	39.777274
674.285400	39.787316
674.436584	39.794894
674.587708	39.801698
674.738831	39.804950
674.889954	39.807756
675.041077	39.807156
675.192139	39.805062
675.343262	39.800321
675.494324	39.795529
675.645386	39.787516
675.796448	39.780376
675.947510	39.774573
676.098572	39.766977
676.249634	39.757744
676.400635	39.747660
676.551636	39.735986
676.702698	39.724430
676.853699	39.713672
677.004639	39.705465
677.155640	39.701309
677.306641	39.697943
677.457581	39.694837
677.608521	39.691331
677.759521	39.689616
677.910461	39.689831
678.061401	39.690473
678.212280	39.691524
678.363220	39.693084
678.514099	39.697641
678.664978	39.702998
678.815918	39.711494
678.966797	39.719890
679.117615	39.728960
679.268494	39.738626
679.419373	39.749815
679.570190	39.761729
679.721008	39.774903
679.871826	39.786907
680.022644	39.797486
680.173462	39.804430
680.324280	39.809938
680.475037	39.814043
680.625854	39.819916
680.776611	39.824969
680.927368	39.827733
681.078125	39.827664
681.228882	39.829041
681.379639	39.831133
681.530334	39.833065
681.681030	39.837197
681.831787	39.838403
681.982483	39.836434
682.133179	39.831723
682.283813	39.825639
682.434509	39.818491
682.585205	39.811850
682.735840	39.805556
682.886475	39.801040
683.037109	39.796440
683.187744	39.793471
683.338379	39.792517
683.488953	39.792675
683.639587	39.790297
683.790161	39.790290
683.940735	39.792214
684.091309	39.797061
684.241882	39.802928
684.392456	39.808407
684.543030	39.814735
684.693542	39.819956
684.844055	39.822723
684.994568	39.827161
685.145081	39.835477
685.295593	39.842866
685.446106	39.850071
685.596619	39.857928
685.747070	39.864029
685.897522	39.869229
686.047974	39.874242
686.198425	39.880237
686.348877	39.887398
686.499329	39.894039
686.649719	39.899007
686.800171	39.903782
686.950562	39.907753
687.100952	39.913034
687.251343	39.917329
687.401733	39.922662
687.552124	39.926437
687.702454	39.926065
687.852783	39.927174
688.003174	39.926208
688.153503	39.923784
688.303833	39.922052
688.454102	39.922171
688.604431	39.922926
688.754700	39.924765
688.905029	39.926358
689.055298	39.931439
689.205566	39.935078
689.355835	39.939583
689.506104	39.944794
689.656311	39.954932
689.806580	39.965474
689.956787	39.976513
690.106995	39.988226
690.257202	40.000127
690.407410	40.012714
690.557617	40.023105
690.707764	40.038061
690.857971	40.055550
691.008118	40.076728
691.158264	40.099527
691.308411	40.122926
691.458557	40.144367
691.608704	40.163979
691.758789	40.184043
691.908936	40.203991
692.059021	40.220309
692.209106	40.233473
692.359192	40.243655
692.509277	40.254658
692.659302	40.264259
692.809387	40.269780
692.959412	40.274173
693.109436	40.276893
693.259460	40.277607
693.409485	40.273743
693.559509	40.272522
693.709534	40.270945
693.859497	40.265596
694.009521	40.260752
694.159485	40.256909
694.309448	40.253912
694.459412	40.250684
694.609314	40.251367
694.759277	40.255448
694.909180	40.261412
695.059143	40.268139
695.209045	40.278506
695.358948	40.290335
695.508850	40.300985
695.658691	40.311546
695.808594	40.324338
695.958435	40.336737
696.108337	40.347752
696.258179	40.359068
696.408020	40.374669
696.557800	40.390689
696.707642	40.406103
696.857483	40.423051
697.007263	40.436831
697.157043	40.447397
697.306824	40.456641
697.456604	40.468861
697.606384	40.478907
697.756165	40.485621
697.905884	40.490619
698.055603	40.496556
698.205383	40.502581
698.355103	40.506835
698.504822	40.511586
698.654480	40.514288
698.804199	40.518570
698.953857	40.524489
699.103577	40.532058
699.253235	40.539119
699.402893	40.544755
699.552551	40.547609
699.702148	40.549895
699.851807	40.552006
700.001404	40.555570
700.151062	40.560600
700.300659	40.567362
700.450256	40.572201
700.599792	40.572892
700.749390	40.570408
700.898987	40.564834
701.048523	40.555104
701.198059	40.543155
701.347595	40.531955
701.497131	40.518291
701.646667	40.504800
701.796204	40.488962
701.945679	40.472635
702.095154	40.455892
702.244690	40.441081
702.394165	40.425619
702.543640	40.412225
702.693054	40.398389
702.842529	40.385617
702.991943	40.376313
703.141418	40.367074
703.290833	40.359613
703.440247	40.349012
703.589661	40.343607
703.739014	40.341996
703.888428	40.343243
704.037781	40.348001
704.187134	40.355079
704.336487	40.362613
704.485840	40.371621
704.635193	40.382978
704.784546	40.394191
704.933838	40.404005
705.083191	40.410760
705.232483	40.417584
705.381775	40.427405
705.531067	40.435610
705.680359	40.447432
705.829590	40.461345
705.978882	40.472534
706.128113	40.480814
706.277344	40.483549
706.426575	40.488669
706.575806	40.490897
706.725037	40.490729
706.874207	40.490622
707.023438	40.492517
707.172607	40.496645
707.321777	40.498434
707.470947	40.501131
707.620117	40.502768
707.769287	40.506060
707.918396	40.509273
708.067505	40.516131
708.216675	40.522121
708.365784	40.525759
708.514893	40.529952
708.663940	40.532558
708.813049	40.534572
708.962097	40.534042
709.111206	40.533029
709.260254	40.532652
709.409302	40.535006
709.558350	40.537693
709.707397	40.540096
709.856384	40.542392
710.005432	40.542848
710.154419	40.542543
710.303406	40.545597
710.452393	40.548491
710.601379	40.549143
710.750305	40.550033
710.899292	40.552159
711.048218	40.554843
711.197205	40.559067
711.346130	40.566303
711.495056	40.574941
711.643921	40.580676
711.792847	40.585190
711.941711	40.589781
712.090637	40.598432
712.239502	40.610356
712.388367	40.618687
712.537231	40.629832
712.686096	40.645074
712.834900	40.660401
712.983765	40.676330
713.132568	40.689025
713.281372	40.700098
713.430176	40.709961
713.578979	40.719716
713.727722	40.728441
713.876526	40.737739
714.025269	40.745315
714.174072	40.751896
714.322815	40.755061
714.471558	40.756070
714.620239	40.757480
714.768982	40.755383
714.917664	40.753530
715.066406	40.753180
715.215088	40.751957
715.363770	40.753384
715.512451	40.752376
715.661072	40.749980
715.809753	40.747875
715.958374	40.744845
716.107056	40.742817
716.255676	40.739088
716.404297	40.735026
716.552917	40.734258
716.701477	40.734543
716.850098	40.732737
716.998657	40.732944
717.147217	40.733267
717.295776	40.733569
717.444336	40.737270
717.592896	40.744324
717.741455	40.754540
717.889954	40.768071
718.038513	40.778125
718.187012	40.786376
718.335510	40.794560
718.484009	40.801060
718.632446	40.805818
718.780945	40.810436
718.929382	40.816762
719.077881	40.823144
719.226318	40.830504
719.374756	40.838460
719.523132	40.844904
719.671570	40.851912
719.820007	40.860183
719.968384	40.867633
720.116760	40.873314
720.265137	40.879467
720.413513	40.882546
720.561890	40.883129
720.710205	40.882792
720.858582	40.881290
721.006897	40.879632
721.155212	40.879190
721.303528	40.875768
721.451843	40.874626
721.600159	40.872666
721.748413	40.871039
721.896729	40.867480
722.044983	40.862268
722.193237	40.857956
722.341492	40.854927
722.489746	40.853056
722.637939	40.850672
722.786194	40.849716
722.934387	40.849668
723.082581	40.852567
723.230774	40.854222
723.378967	40.858239
723.527161	40.862237
723.675354	40.866319
723.823486	40.868933
723.971619	40.873246
724.119751	40.877996
724.267883	40.883967
724.416016	40.891973
724.564148	40.901467
724.712219	40.915398
724.860352	40.927672
725.008423	40.942987
725.156494	40.959439
725.304565	40.976154
725.452637	40.993979
725.600647	41.010867
725.748718	41.025708
725.896729	41.038758
726.044739	41.050853
726.192749	41.064590
726.340759	41.075555
726.488770	41.086858
726.636719	41.099284
726.784729	41.113427
726.932678	41.124828
727.080627	41.134535
727.228577	41.144209
727.376526	41.149661
727.524414	41.155170
727.672363	41.155661
727.820251	41.157031
727.968140	41.156962
728.116028	41.155824
728.263916	41.154180
728.411804	41.148057
728.559631	41.141342
728.707520	41.134123
728.855347	41.125760
729.003174	41.115732
729.151001	41.107461
729.298828	41.097922
729.446594	41.088100
729.594421	41.077475
729.742188	41.067092
729.890015	41.057512
730.037781	41.049521
730.185486	41.043664
730.333252	41.040974
730.481018	41.040857
730.628723	41.040862
730.776428	41.044792
730.924194	41.048559
731.071899	41.052772
731.219543	41.056634
731.367249	41.064750
731.514954	41.072847
731.662598	41.083502
731.810242	41.095056
731.957886	41.105879
732.105530	41.113769
732.253174	41.125587
732.400818	41.138608
732.548401	41.152473
732.695984	41.163691
732.843567	41.177036
732.991150	41.189931
733.138733	41.201246
733.286316	41.212127
733.433838	41.221122
733.581421	41.229702
733.728943	41.235836
733.876465	41.242342
734.023987	41.247628
734.171509	41.252507
734.318970	41.257780
734.466492	41.263283
734.613953	41.266767
734.761414	41.271716
734.908875	41.279895
735.056335	41.288697
735.203796	41.297283
735.351196	41.305952
735.498657	41.314739
735.646057	41.324027
735.793457	41.332862
735.940857	41.342375
736.088257	41.351148
736.235657	41.358804
736.382996	41.365348
736.530334	41.371749
736.677734	41.376249
736.825073	41.381296
736.972351	41.386841
737.119690	41.392473
737.267029	41.394971
737.414307	41.396793
737.561584	41.397658
737.708862	41.397183
737.856140	41.395326
738.003418	41.393573
738.150696	41.389041
738.297913	41.383324
738.445190	41.376181
738.592407	41.368598
738.739624	41.360242
738.886841	41.352335
739.033997	41.346133
739.181213	41.340838
739.328369	41.336363
739.475586	41.331598
739.622742	41.328354
739.769897	41.325833
739.916992	41.325754
740.064148	41.326343
740.211304	41.328093
740.358398	41.330462
740.505493	41.337070
740.652588	41.345790
740.799683	41.353965
740.946777	41.362889
741.093811	41.373579
741.240906	41.384521
741.387939	41.396386
741.534973	41.408533
741.682007	41.421729
741.829041	41.433300
741.976013	41.445501
742.123047	41.458694
742.270020	41.471493
742.416992	41.486380
742.563965	41.501796
742.710938	41.514810
742.857910	41.524993
743.004883	41.534509
743.151794	41.543757
743.298706	41.553040
743.445618	41.559740
743.592529	41.565055
743.739441	41.570670
743.886353	41.574043
744.033203	41.578361
744.180115	41.582842
744.326965	41.585950
744.473816	41.591765
744.620667	41.595991
744.767456	41.601112
744.914307	41.603597
745.061096	41.602784
745.207947	41.602158
745.354736	41.601430
745.501526	41.600142
745.648254	41.599927
745.795044	41.599958
745.941833	41.599091
746.088562	41.597228
746.235291	41.595417
746.382019	41.593242
746.528748	41.589182
746.675476	41.584116
746.822144	41.580808
746.968872	41.575055
747.115540	41.569930
747.262207	41.565687
747.408875	41.560848
747.555542	41.555055
747.702148	41.550031
747.848816	41.546483
747.995422	41.543876
748.142029	41.542611
748.288635	41.540379
748.435242	41.537476
748.581848	41.536105
748.728394	41.534878
748.875000	41.535106
749.021545	41.536332
749.168091	41.538412
749.314636	41.541579
749.461182	41.546106
749.607666	41.552389
749.754211	41.558761
749.900696	41.567758
750.047180	41.577522
750.193665	41.589262
750.340149	41.600735
750.486633	41.614394
750.633057	41.626834
750.779541	41.639693
750.925964	41.654541
751.072388	41.668130
751.218811	41.681453
751.365234	41.698231
751.511597	41.712265
751.658020	41.725555
751.804382	41.738888
751.950745	41.751057
752.097107	41.763381
752.243469	41.773532
752.389832	41.784892
752.536133	41.796486
752.682495	41.805944
752.828796	41.812891
752.975098	41.817987
753.121399	41.821888
753.267639	41.825053
753.413940	41.829366
753.560181	41.834091
753.706482	41.837015
753.852722	41.838318
753.998962	41.838151
754.145203	41.838053
754.291382	41.835960
754.437622	41.835548
754.583801	41.837538
754.729980	41.839565
754.876160	41.841634
755.022339	41.844055
755.168518	41.847630
755.314697	41.851333
755.460815	41.853794
755.606934	41.860434
755.753052	41.868485
755.899170	41.878473
756.045288	41.888464
756.191406	41.897851
756.337463	41.906465
756.483521	41.916310
756.629639	41.927174
756.775696	41.940960
756.921692	41.955299
757.067749	41.970964
757.213806	41.984867
757.359802	41.999165
757.505798	42.011060
757.651794	42.021298
757.797791	42.032609
757.943787	42.042031
758.089783	42.050724
758.235718	42.056363
758.381653	42.060219
758.527588	42.060735
758.673523	42.062335
758.819458	42.062733
758.965393	42.062225
759.111267	42.062160
759.257202	42.059354
759.403076	42.054708
759.548950	42.049673
759.694824	42.041997
759.840698	42.035363
759.986511	42.026118
760.132385	42.017631
760.278198	42.007852
760.424011	41.998033
760.569824	41.988186
760.715637	41.979194
760.861389	41.972954
761.007202	41.968008
761.152954	41.964599
761.298706	41.964881
761.444458	41.966347
761.590210	41.968212
761.735962	41.968630
761.881653	41.970208
762.027405	41.974007
762.173096	41.980066
762.318787	41.987092
762.464478	41.996126
762.610168	42.004684
762.755798	42.014077
762.901489	42.024834
763.047119	42.035708
763.192749	42.045512
763.338379	42.056249
763.484009	42.067381
763.629639	42.078008
763.775208	42.085543
763.920837	42.092286
764.066406	42.099085
764.211975	42.104294
764.357544	42.109673
764.503052	42.113345
764.648621	42.118203
764.794128	42.121926
764.939697	42.122064
765.085205	42.121604
765.230713	42.120490
765.376221	42.117070
765.521667	42.114295
765.667175	42.109572
765.812622	42.106281
765.958069	42.104538
766.103516	42.104081
766.248962	42.104446
766.394409	42.105422
766.539795	42.107516
766.685181	42.109272
766.830627	42.112237
766.976013	42.115920
767.121399	42.119666
767.266724	42.122419
767.412109	42.124419
767.557434	42.127612
767.702820	42.131165
767.848145	42.135518
767.993469	42.140462
768.138733	42.145911
768.284058	42.151731
768.429382	42.157284
768.574646	42.163808
768.719910	42.169854
768.865173	42.174882
769.010437	42.181727
769.155701	42.187765
769.300903	42.192898
769.446167	42.194609
769.591370	42.198735
769.736572	42.201321
769.881775	42.203233
770.026978	42.205687
770.172119	42.209375
770.317322	42.213225
770.462463	42.215447
770.607605	42.216020
770.752747	42.217986
770.897888	42.219842
771.042969	42.221718
771.188110	42.224528
771.333191	42.228199
771.478271	42.231698
771.623352	42.233931
771.768433	42.236083
771.913513	42.237054
772.058533	42.235471
772.203613	42.235491
772.348633	42.237506
772.493652	42.238115
772.638672	42.237964
772.783691	42.237039
772.928650	42.233747
773.073669	42.230800
773.218628	42.228533
773.363586	42.226304
773.508545	42.225374
773.653503	42.222636
773.798462	42.220080
773.943359	42.217721
774.088257	42.214612
774.233215	42.211186
774.378113	42.206537
774.522949	42.203607
774.667847	42.200763
774.812744	42.196113
774.957581	42.193181
775.102417	42.190235
775.247253	42.189141
775.392090	42.188856
775.536926	42.192297
775.681763	42.197682
775.826538	42.203652
775.971313	42.207766
776.116089	42.212693
776.260864	42.219958
776.405640	42.229521
776.550415	42.240220
776.695129	42.250616
776.839905	42.260666
776.984619	42.271265
777.129333	42.282680
777.274048	42.295611
777.418701	42.307945
777.563416	42.320206
777.708069	42.334578
777.852722	42.351780
777.997375	42.369537
778.142029	42.385489
778.286682	42.402718
778.431335	42.417809
778.575928	42.432709
778.720520	42.449046
778.865112	42.467381
779.009705	42.485120
779.154297	42.500472
779.298889	42.514557
779.443420	42.530535
779.588013	42.547103
779.732544	42.562398
779.877075	42.576134
780.021606	42.587838
780.166077	42.599305
780.310608	42.609131
780.455078	42.617700
780.599548	42.625281
780.744019	42.630674
780.888489	42.636168
781.032959	42.641047
781.177429	42.643813
781.321838	42.645575
781.466248	42.645307
781.610657	42.644786
781.755066	42.643246
781.899475	42.639092
782.043884	42.634143
782.188232	42.627884
782.332581	42.619764
782.476929	42.610817
782.621277	42.602068
782.765625	42.593074
782.909973	42.583220
783.054260	42.572934
783.198608	42.564448
783.342896	42.556930
783.487183	42.549443
783.631470	42.542317
783.775696	42.533388
783.919983	42.524938
784.064209	42.516286
784.208435	42.508973
784.352722	42.503097
784.496887	42.499041
784.641113	42.493724
784.785339	42.490789
784.929504	42.489310
785.073669	42.486883
785.217896	42.483369
785.362000	42.478282
785.506165	42.473644
785.650330	42.468913
785.794434	42.466300
785.938599	42.465089
786.082703	42.462157
786.226807	42.458629
786.370911	42.456881
786.514954	42.457652
786.659058	42.459507
786.803101	42.462813
786.947144	42.466269
787.091187	42.469550
787.235229	42.474615
787.379272	42.477149
787.523254	42.481261
787.667297	42.487166
787.811279	42.492396
787.955261	42.498968
788.099243	42.506881
788.243225	42.516668
788.387146	42.527342
788.531128	42.540264
788.675049	42.554053
788.818970	42.567563
788.962891	42.581561
789.106812	42.596321
789.250671	42.608561
789.394592	42.617577
789.538452	42.627513
789.682312	42.635937
789.826172	42.645134
789.970032	42.653930
790.113892	42.661377
790.257690	42.669351
790.401550	42.675592
790.545349	42.679241
790.689148	42.683002
790.832947	42.688521
790.976685	42.694199
791.120483	42.698789
791.264221	42.702270
791.408020	42.705050
791.551758	42.706301
791.695435	42.705019
791.839172	42.705229
791.982910	42.707325
792.126587	42.710921
792.270264	42.714790
792.414001	42.716919
792.557617	42.719224
792.701294	42.723535
792.844971	42.726500
792.988586	42.727848
793.132263	42.729730
793.275879	42.733466
793.419495	42.738914
793.563110	42.745014
793.706665	42.749079
793.850281	42.752426
793.993835	42.757175
794.137390	42.762702
794.280945	42.768428
794.424500	42.774918
794.568054	42.783026
794.711548	42.790295
794.855103	42.795183
794.998596	42.800637
795.142090	42.805091
795.285583	42.810504
795.429016	42.816541
795.572510	42.819451
795.715942	42.824125
795.859436	42.828435
796.002869	42.832896
796.146301	42.836886
796.289673	42.840330
796.433105	42.843793
796.576477	42.846291
796.719910	42.847412
796.863281	42.847801
797.006653	42.846532
797.149963	42.843292
797.293335	42.838638
797.436707	42.834852
797.580017	42.830833
797.723328	42.827196
797.866638	42.824261
798.009949	42.822561
798.153198	42.820576
798.296509	42.818559
798.439758	42.818505
798.583008	42.819719
798.726257	42.821815
798.869507	42.822928
799.012756	42.823409
799.156006	42.823923
799.299194	42.825142
799.442383	42.829427
799.585571	42.836993
799.728760	42.845673
799.871948	42.855871
800.015076	42.867820
800.158264	42.879205
800.301392	42.890179
800.444519	42.901966
800.587646	42.912333
800.730774	42.921562
800.873840	42.932500
801.016968	42.942315
801.160034	42.948971
801.303101	42.955120
801.446167	42.958701
801.589233	42.963351
801.732239	42.966278
801.875305	42.968358
802.018311	42.966860
802.161316	42.962083
802.304321	42.956021
802.447327	42.947896
802.590332	42.936188
802.733276	42.924225
802.876282	42.911378
803.019226	42.900084
803.162170	42.889452
803.305115	42.879901
803.447998	42.873350
803.590942	42.863956
803.733826	42.852228
803.876709	42.842147
804.019592	42.834276
804.162476	42.825345
804.305359	42.816973
804.448181	42.808980
804.591064	42.805865
804.733887	42.803978
804.876709	42.806365
805.019531	42.810714
805.162354	42.815944
805.305115	42.821089
805.447937	42.828673
805.590698	42.836573
805.733459	42.847454
805.876221	42.861170
806.018982	42.872922
806.161682	42.882567
806.304443	42.892002
806.447144	42.902767
806.589844	42.914315
806.732544	42.924309
806.875244	42.936563
807.017883	42.948537
807.160583	42.960375
807.303223	42.969767
807.445862	42.974846
807.588501	42.978833
807.731140	42.981449
807.873779	42.985224
808.016357	42.987009
808.158936	42.988804
808.301575	42.992815
808.444153	42.996511
808.586670	42.998213
808.729248	42.997015
808.871826	42.997494
809.014343	42.998757
809.156860	42.997516
809.299377	43.000031
809.441895	43.004371
809.584412	43.008742
809.726868	43.012259
809.869385	43.016295
810.011841	43.021224
810.154297	43.027927
810.296753	43.036207
810.439148	43.046774
810.581604	43.059051
810.723999	43.072629
810.866455	43.087940
811.008850	43.104593
811.151184	43.118985
811.293579	43.135222
811.435974	43.149822
811.578308	43.164600
811.720642	43.178969
811.863037	43.191842
812.005310	43.207850
812.147644	43.221613
812.289978	43.233827
812.432251	43.246842
812.574524	43.256807
812.716858	43.266118
812.859070	43.274561
813.001343	43.281805
813.143616	43.287756
813.285828	43.292179
813.428101	43.293782
813.570312	43.292204
813.712524	43.288392
813.854675	43.282101
813.996887	43.275998
814.139099	43.266707
814.281250	43.259216
814.423401	43.252360
814.565552	43.243976
814.707703	43.236880
814.849792	43.227528
814.991943	43.215941
815.134033	43.201966
815.276123	43.188627
815.418213	43.176871
815.560303	43.165382
815.702393	43.154561
815.844421	43.145900
815.986511	43.139891
816.128540	43.135849
816.270569	43.133055
816.412598	43.131043
816.554565	43.127636
816.696594	43.126161
816.838562	43.126465
816.980591	43.128823
817.122559	43.132073
817.264465	43.133613
817.406433	43.136654
817.548401	43.141550
817.690308	43.147215
817.832214	43.154742
817.974121	43.164224
818.116028	43.173393
818.257935	43.184136
818.399780	43.196315
818.541687	43.208502
818.683533	43.219647
818.825378	43.228667
818.967224	43.235049
819.109070	43.241948
819.250854	43.248166
819.392700	43.258046
819.534485	43.268688
819.676270	43.274848
819.818054	43.281181
819.959839	43.285440
820.101562	43.289624
820.243347	43.295458
820.385071	43.296103
820.526794	43.296262
820.668518	43.296262
820.810242	43.295116
820.951904	43.294223
821.093628	43.293924
821.235291	43.294026
821.376953	43.294068
821.518616	43.293700
821.660278	43.291357
821.801880	43.291812
821.943542	43.292628
822.085144	43.294226
822.226746	43.295539
822.368347	43.296333
822.509949	43.299881
822.651550	43.302306
822.793091	43.305353
822.934631	43.311087
823.076233	43.316617
823.217773	43.327128
823.359253	43.337590
823.500793	43.350603
823.642273	43.366398
823.783813	43.379823
823.925293	43.392523
824.066772	43.404203
824.208252	43.414814
824.349670	43.424508
824.491150	43.436390
824.632568	43.446560
824.773987	43.455943
824.915405	43.467008
825.056824	43.476627
825.198242	43.484270
825.339600	43.491942
825.481018	43.499336
825.622375	43.507924
825.763733	43.515395
825.905029	43.520502
826.046387	43.525128
826.187744	43.529658
826.329041	43.531097
826.470337	43.532695
826.611633	43.535348
826.752930	43.534430
826.894226	43.532693
827.035461	43.531766
827.176758	43.530073
827.317993	43.530493
827.459229	43.530399
827.600464	43.527025
827.741638	43.522842
827.882874	43.520234
828.024048	43.519538
828.165222	43.517837
828.306396	43.516472
828.447571	43.513217
828.588745	43.507129
828.729858	43.501554
828.871033	43.493665
829.012146	43.485398
829.153259	43.475037
829.294373	43.460038
829.435486	43.446774
829.576538	43.435103
829.717590	43.423881
829.858704	43.415000
829.999756	43.408006
830.140808	43.401320
830.281799	43.396688
830.422852	43.394772
830.563843	43.390696
830.704834	43.384788
830.845825	43.379609
830.986816	43.376851
831.127808	43.376354
831.268799	43.378999
831.409729	43.387040
831.550659	43.396273
831.691589	43.406734
831.832520	43.418915
831.973450	43.435666
832.114319	43.455169
832.255249	43.473390
832.396118	43.493861
832.536987	43.513559
832.677856	43.532579
832.818726	43.551658
832.959534	43.568641
833.100342	43.585894
833.241211	43.604958
833.382019	43.623906
833.522827	43.642145
833.663574	43.655489
833.804382	43.665866
833.945129	43.673338
834.085876	43.678520
834.226685	43.679162
834.367371	43.677063
834.508118	43.671294
834.648865	43.662938
834.789551	43.652620
834.930237	43.642637
835.070923	43.633665
835.211609	43.624905
835.352295	43.617215
835.492981	43.606536
835.633606	43.597085
835.774231	43.586805
835.914856	43.572824
836.055481	43.559370
836.196106	43.549745
836.336670	43.546735
836.477295	43.550277
836.617859	43.558111
836.758423	43.570091
836.898987	43.581585
837.039551	43.594100
837.180054	43.607946
837.320618	43.626744
837.461121	43.647949
837.601624	43.667919
837.742126	43.687845
837.882629	43.708161
838.023071	43.727486
838.163574	43.747042
838.304016	43.766079
838.444458	43.784584
838.584900	43.805218
838.725281	43.825770
838.865723	43.843803
839.006104	43.858844
839.146545	43.868696
839.286926	43.877456
839.427307	43.882427
839.567627	43.882865
839.708008	43.883628
839.848328	43.883597
839.988647	43.882527
840.128967	43.881434
840.269287	43.877836
840.409607	43.875403
840.549927	43.875433
840.690186	43.872985
840.830444	43.869091
840.970703	43.865948
841.110962	43.866594
841.251221	43.865605
841.391418	43.864553
841.531677	43.868858
841.671875	43.875392
841.812073	43.884763
841.952271	43.891631
842.092468	43.895865
842.232605	43.900663
842.372803	43.904588
842.512939	43.906583
842.653076	43.908071
842.793213	43.910507
842.933289	43.911506
843.073425	43.913850
843.213501	43.916982
843.353638	43.918429
843.493713	43.920495
843.633789	43.924666
843.773804	43.928061
843.913879	43.928589
844.053894	43.931916
844.193909	43.935037
844.333923	43.935432
844.473938	43.935915
844.613953	43.934909
844.753906	43.938003
844.893921	43.940620
845.033875	43.944649
845.173828	43.951010
845.313782	43.956364
845.453735	43.961917
845.593628	43.967370
845.733582	43.972581
845.873474	43.979910
846.013367	43.986003
846.153259	43.988761
846.293091	43.994348
846.432983	43.997533
846.572815	43.999207
846.712646	43.998950
846.852478	43.997703
846.992310	43.995682
847.132141	43.990824
847.271912	43.985160
847.411743	43.976229
847.551514	43.965855
847.691284	43.953013
847.831055	43.937424
847.970764	43.919370
848.110535	43.903665
848.250244	43.892031
848.389954	43.881037
848.529663	43.870978
848.669373	43.860331
848.809082	43.851698
848.948730	43.844482
849.088440	43.836049
849.228088	43.828736
849.367737	43.823053
849.507385	43.821948
849.646973	43.820724
849.786621	43.819888
849.926208	43.820343
850.065796	43.818804
850.205383	43.820271
850.344971	43.820446
850.484558	43.825074
850.624084	43.830525
850.763611	43.838374
850.903198	43.847968
851.042725	43.855073
851.182190	43.862664
851.321716	43.869719
851.461182	43.874483
851.600708	43.879213
851.740173	43.887047
851.879639	43.892520
852.019104	43.897684
852.158508	43.905168
852.297974	43.910732
852.437378	43.914858
852.576782	43.918165
852.716187	43.922504
852.855591	43.926161
852.994934	43.929140
853.134338	43.932255
853.273682	43.936454
853.413025	43.942560
853.552368	43.950629
853.691711	43.959085
853.830994	43.966130
853.970337	43.974714
854.109619	43.982561
854.248901	43.990615
854.388184	43.996942
854.527466	44.002527
854.666687	44.009594
854.805969	44.016115
854.945190	44.018429
855.084412	44.021145
855.223633	44.023993
855.362854	44.027092
855.502014	44.030088
855.641235	44.036274
855.780396	44.042972
855.919556	44.052897
856.058716	44.062982
856.197876	44.072324
856.336975	44.079146
856.476135	44.082995
856.615234	44.089803
856.754333	44.096272
856.893433	44.104492
857.032471	44.113554
857.171570	44.123033
857.310608	44.128891
857.449646	44.132954
857.588745	44.138074
857.727722	44.141599
857.866760	44.146105
858.005798	44.150638
858.144775	44.154269
858.283752	44.159521
858.422729	44.164332
858.561707	44.168639
858.700684	44.172613
858.839600	44.174388
858.978516	44.174585
859.117493	44.174434
859.256409	44.173548
859.395264	44.171916
859.534180	44.169529
859.673096	44.166379
859.811951	44.162455
859.950806	44.157749
860.089661	44.152251
860.228516	44.145952
860.367310	44.138842
860.506165	44.130912
860.644958	44.122153
860.783752	44.112555
860.922546	44.102109
861.061340	44.090806
861.200134	44.078636
861.338867	44.065590
861.477600	44.051658
861.616333	44.036832
